wavelength, amplitude
179.267, 11.06
179.649, 11.06
180.031, 11.06
180.413, -44.02
180.795, -59.29
181.177, -64.99
181.559, -58.95
181.941, -63.56
182.323, -61.19
182.705, -47.42
183.087, -44.57
183.469, -37.38
183.85, -14.11
184.232, -9.15
184.614, 4.28
184.995, 26.67
185.377, 43.08
185.759, 47.76
186.14, 78.5
186.522, 91.79
186.903, 109.23
187.285, 128.7
187.666, 140.77
188.047, 168.93
188.429, 190.98
188.81, 210.11
189.191, 221.51
189.573, 239.42
189.954, 258.28
190.335, 267.03
190.716, 286.77
191.097, 284.73
191.478, 298.3
191.859, 309.5
192.24, 326.05
192.621, 333.17
193.002, 344.57
193.383, 342.33
193.764, 352.57
194.145, 354.95
194.526, 369.4
194.906, 372.93
195.287, 387.17
195.668, 385.54
196.048, 389.62
196.429, 388.67
196.81, 381.47
197.19, 377.95
197.571, 387.78
197.951, 387.58
198.331, 389.21
198.712, 391.85
199.092, 392.19
199.472, 390.43
199.853, 370.69
200.233, 371.09
200.613, 376.39
200.993, 381.47
201.373, 366.89
201.754, 372.66
202.134, 362.07
202.514, 372.86
202.894, 361.19
203.274, 366.01
203.654, 364.18
204.033, 376.32
204.413, 355.42
204.793, 356.1
205.173, 360.17
205.553, 358.68
205.932, 361.33
206.312, 352.71
206.692, 354.61
207.071, 340.5
207.451, 362.07
207.83, 345.25
208.21, 340.36
208.589, 348.84
208.969, 356.03
209.348, 345.59
209.727, 341.45
210.107, 354.13
210.486, 351.08
210.865, 355.83
211.244, 348.44
211.623, 347.96
212.003, 350.27
212.382, 346.67
212.761, 350.54
213.14, 358.48
213.519, 361.12
213.898, 356.64
214.276, 344.23
214.655, 344.98
215.034, 353.39
215.413, 353.46
215.792, 355.29
216.17, 352.3
216.549, 354.2
216.928, 353.05
217.306, 364.18
217.685, 350.2
218.064, 369.47
218.442, 365.46
218.82, 356.85
219.199, 367.23
219.577, 357.73
219.956, 350.81
220.334, 361.26
220.712, 364.65
221.091, 356.92
221.469, 370.01
221.847, 363.77
222.225, 368.86
222.603, 363.56
222.981, 367.09
223.359, 355.83
223.737, 366.55
224.115, 375.37
224.493, 358.82
224.871, 360.78
225.249, 370.28
225.627, 370.96
226.004, 364.85
226.382, 361.26
226.76, 358.61
227.137, 356.78
227.515, 372.86
227.893, 369.13
228.27, 369.74
228.648, 360.17
229.025, 374.42
229.403, 358.54
229.78, 372.72
230.157, 360.24
230.535, 365.6
230.912, 358.07
231.289, 357.93
231.667, 377.27
232.044, 379.57
232.421, 365.6
232.798, 368.31
233.175, 376.25
233.552, 364.58
233.929, 369.2
234.306, 370.89
234.683, 367.16
235.06, 371.16
235.437, 370.28
235.814, 378.42
236.19, 369.2
236.567, 367.43
236.944, 378.29
237.32, 369.53
237.697, 368.52
238.074, 372.18
238.45, 369.87
238.827, 375.23
239.203, 366.69
239.58, 387.44
239.956, 377.27
240.332, 369.06
240.709, 375.44
241.085, 376.05
241.461, 366.21
241.838, 390.77
242.214, 379.91
242.59, 382.76
242.966, 374.69
243.342, 371.77
243.718, 376.25
244.094, 373.06
244.47, 367.84
244.846, 377
245.222, 376.05
245.598, 381.81
245.973, 373.06
246.349, 383.37
246.725, 377.74
247.101, 372.59
247.476, 384.53
247.852, 379.24
248.228, 375.78
248.603, 377.88
248.979, 387.92
249.354, 383.51
249.73, 386.63
250.105, 378.76
250.48, 374.49
250.856, 385.27
251.231, 388.06
251.606, 381.07
251.981, 391.92
252.357, 404.4
252.732, 390.7
253.107, 380.19
253.482, 379.44
253.857, 390.97
254.232, 379.3
254.607, 383.78
254.982, 385.95
255.357, 384.26
255.731, 388.06
256.106, 389.62
256.481, 386.7
256.856, 389.48
257.23, 376.05
257.605, 381.61
257.98, 382.63
258.354, 382.09
258.729, 385.07
259.103, 379.17
259.478, 383.17
259.852, 382.76
260.227, 391.92
260.601, 367.3
260.975, 388.26
261.35, 383.71
261.724, 388.8
262.098, 388.26
262.472, 384.12
262.846, 381.61
263.22, 378.35
263.594, 390.36
263.968, 390.23
264.342, 380.52
264.716, 387.44
265.09, 381.68
265.464, 403.73
265.838, 387.78
266.212, 380.05
266.586, 383.31
266.959, 386.43
267.333, 383.71
267.707, 379.98
268.08, 400.88
268.454, 389.62
268.827, 386.9
269.201, 395.11
269.574, 389.28
269.948, 392.13
270.321, 383.1
270.694, 385
271.068, 383.78
271.441, 390.57
271.814, 391.51
272.187, 387.51
272.56, 388.94
272.933, 394.84
273.307, 388.8
273.68, 377.68
274.053, 389.55
274.425, 396.54
274.798, 382.22
275.171, 385.82
275.544, 389.07
275.917, 400.4
276.29, 388.73
276.662, 389.14
277.035, 388.94
277.408, 396.2
277.78, 388.46
278.153, 387.65
278.525, 390.36
278.898, 404.88
279.27, 389
279.643, 398.43
280.015, 379.03
280.388, 397.01
280.76, 384.87
281.132, 395.79
281.504, 386.43
281.877, 386.36
282.249, 386.22
282.621, 389.48
282.993, 387.38
283.365, 397.01
283.737, 384.87
284.109, 397.62
284.481, 381.68
284.853, 398.64
285.225, 394.57
285.596, 396.81
285.968, 392.74
286.34, 400.54
286.712, 390.7
287.083, 385.68
287.455, 399.11
287.826, 394.43
288.198, 378.56
288.569, 394.36
288.941, 379.71
289.312, 390.9
289.684, 397.89
290.055, 388.12
290.426, 398.5
290.798, 390.09
291.169, 402.03
291.54, 393.48
291.911, 395.72
292.282, 404.2
292.653, 395.72
293.024, 393.48
293.395, 394.97
293.766, 392.67
294.137, 384.93
294.508, 389.34
294.879, 397.76
295.25, 400.06
295.621, 395.65
295.991, 387.38
296.362, 378.29
296.733, 379.98
297.103, 402.57
297.474, 393.41
297.844, 389.89
298.215, 399.11
298.585, 398.98
298.956, 392.13
299.326, 399.18
299.697, 392.87
300.067, 390.36
300.437, 389.07
300.807, 393.62
301.177, 387.92
301.548, 401.42
301.918, 404.61
302.288, 398.98
302.658, 393.62
303.028, 393.48
303.398, 399.45
303.768, 381.41
304.138, 392.53
304.507, 382.63
304.877, 397.82
305.247, 396.13
305.617, 393.62
305.986, 399.93
306.356, 391.99
306.726, 397.21
307.095, 390.23
307.465, 393.89
307.834, 400.2
308.204, 399.52
308.573, 390.9
308.942, 402.3
309.312, 396.81
309.681, 410.24
310.05, 404.13
310.42, 404.61
310.789, 394.03
311.158, 399.52
311.527, 403.39
311.896, 402.51
312.265, 392.06
312.634, 394.77
313.003, 388.94
313.372, 404.34
313.741, 398.16
314.11, 395.25
314.478, 388.46
314.847, 397.69
315.216, 401.08
315.584, 392.33
315.953, 391.51
316.322, 402.3
316.69, 401.01
317.059, 399.45
317.427, 385.54
317.796, 392.26
318.164, 404.74
318.532, 391.85
318.901, 394.43
319.269, 387.31
319.637, 392.19
320.005, 392.4
320.374, 399.38
320.742, 405.83
321.11, 398.43
321.478, 396.06
321.846, 398.43
322.214, 399.18
322.582, 393.14
322.95, 397.42
323.317, 393.69
323.685, 404.2
324.053, 404.88
324.421, 392.19
324.788, 398.43
325.156, 401.76
325.524, 398.23
325.891, 393.08
326.259, 398.71
326.626, 405.69
326.994, 395.59
327.361, 411.12
327.728, 400.27
328.096, 390.57
328.463, 389.75
328.83, 395.52
329.198, 398.1
329.565, 403.66
329.932, 398.23
330.299, 408.68
330.666, 405.97
331.033, 400.27
331.4, 400.27
331.767, 390.77
332.134, 410.24
332.501, 409.56
332.867, 401.89
333.234, 395.04
333.601, 388.19
333.968, 401.22
334.334, 398.64
334.701, 397.62
335.068, 403.25
335.434, 403.93
335.801, 414.17
336.167, 423.13
336.533, 433.51
336.9, 441.45
337.266, 422.11
337.632, 407.46
337.999, 401.96
338.365, 397.48
338.731, 402.78
339.097, 404.13
339.463, 412
339.829, 404.54
340.195, 417.5
340.561, 419.8
340.927, 437.78
341.293, 472.65
341.659, 488.87
342.025, 468.45
342.391, 411.94
342.756, 407.32
343.122, 409.02
343.488, 446.19
343.853, 479.84
344.219, 555.62
344.585, 622.72
344.95, 647.55
345.316, 592.53
345.681, 588.93
346.046, 609.42
346.412, 629.43
346.777, 674.34
347.142, 623.26
347.507, 549.18
347.873, 442.12
348.238, 420.75
348.603, 429.85
348.968, 448.64
349.333, 466.07
349.698, 502.1
350.063, 504.67
350.428, 508.41
350.793, 527.88
351.157, 592.32
351.522, 722.51
351.887, 748.43
352.252, 657.11
352.616, 487.31
352.981, 410.24
353.346, 405.08
353.71, 407.25
354.075, 401.15
354.439, 404.27
354.803, 384.66
355.168, 403.73
355.532, 411.8
355.896, 390.63
356.261, 397.42
356.625, 404.34
356.989, 409.02
357.353, 410.65
357.717, 392.53
358.081, 434.66
358.445, 462.61
358.809, 545.24
359.173, 572.65
359.537, 559.35
359.901, 469.46
360.265, 427
360.629, 410.58
360.992, 404.07
361.356, 412.21
361.72, 404.4
362.083, 399.52
362.447, 410.37
362.81, 414.78
363.174, 430.05
363.537, 419.26
363.901, 409.42
364.264, 387.38
364.627, 401.15
364.991, 389.41
365.354, 399.05
365.717, 384.73
366.08, 401.28
366.443, 403.45
366.806, 396.6
367.17, 408.2
367.533, 418.79
367.895, 420.75
368.258, 435.14
368.621, 428.22
368.984, 414.99
369.347, 409.56
369.71, 429.03
370.072, 418.99
370.435, 408
370.798, 405.42
371.16, 399.93
371.523, 397.28
371.885, 411.53
372.248, 401.89
372.61, 406.1
372.973, 400.81
373.335, 390.16
373.697, 398.98
374.06, 400.4
374.422, 400.54
374.784, 400.4
375.146, 403.18
375.508, 410.1
375.87, 386.63
376.232, 399.45
376.594, 391.18
376.956, 393.62
377.318, 398.23
377.68, 390.29
378.042, 393.75
378.404, 396.74
378.765, 402.23
379.127, 392.13
379.489, 389.34
379.85, 392.6
380.212, 398.37
380.573, 408.88
380.935, 397.89
381.296, 390.63
381.658, 403.79
382.019, 406.98
382.38, 411.39
382.742, 400.13
383.103, 386.83
383.464, 403.39
383.825, 390.9
384.186, 402.98
384.547, 402.3
384.909, 399.18
385.27, 393.96
385.63, 391.18
385.991, 396.54
386.352, 389.48
386.713, 395.45
387.074, 391.24
387.435, 382.22
387.795, 401.01
388.156, 405.08
388.517, 398.03
388.877, 397.35
389.238, 388.8
389.598, 397.28
389.959, 394.23
390.319, 401.69
390.679, 397.21
391.04, 396.47
391.4, 392.74
391.76, 385
392.121, 395.31
392.481, 392.74
392.841, 387.99
393.201, 395.92
393.561, 401.83
393.921, 402.71
394.281, 391.38
394.641, 391.99
395.001, 401.69
395.361, 394.97
395.72, 393.28
396.08, 403.32
396.44, 395.52
396.8, 403.86
397.159, 414.17
397.519, 401.49
397.878, 404.54
398.238, 388.94
398.597, 396.6
398.957, 394.3
399.316, 404
399.675, 391.38
400.035, 392.53
400.394, 407.93
400.753, 385.54
401.112, 393.89
401.472, 387.99
401.831, 400.27
402.19, 393.89
402.549, 395.65
402.908, 393.48
403.267, 397.15
403.625, 394.57
403.984, 396.13
404.343, 401.01
404.702, 395.59
405.061, 388.53
405.419, 392.19
405.778, 398.16
406.136, 393.41
406.495, 385.27
406.853, 390.63
407.212, 399.66
407.57, 391.45
407.929, 399.66
408.287, 387.44
408.645, 394.77
409.004, 397.62
409.362, 394.5
409.72, 396.2
410.078, 391.51
410.436, 397.01
410.794, 394.23
411.152, 403.45
411.51, 396.81
411.868, 392.8
412.226, 393.48
412.584, 394.3
412.942, 389.21
413.299, 399.11
413.657, 387.44
414.015, 384.6
414.372, 396.13
414.73, 386.97
415.088, 392.06
415.445, 401.35
415.803, 391.85
416.16, 390.7
416.517, 380.32
416.875, 391.92
417.232, 386.49
417.589, 401.89
417.946, 393.69
418.304, 388.06
418.661, 392.4
419.018, 390.97
419.375, 384.93
419.732, 390.9
420.089, 400.13
420.446, 392.13
420.803, 389.41
421.159, 401.08
421.516, 399.59
421.873, 393.01
422.23, 392.6
422.586, 389.68
422.943, 391.24
423.299, 394.84
423.656, 398.71
424.012, 395.04
424.369, 401.56
424.725, 397.96
425.082, 390.84
425.438, 392.33
425.794, 405.63
426.15, 394.7
426.507, 388.8
426.863, 412.82
427.219, 398.03
427.575, 376.73
427.931, 398.77
428.287, 400.74
428.643, 391.24
428.999, 392.46
429.355, 390.57
429.711, 396.6
430.066, 408.95
430.422, 395.99
430.778, 380.52
431.133, 400
431.489, 389
431.844, 381.61
432.2, 389
432.555, 391.99
432.911, 392.33
433.266, 389.07
433.622, 399.18
433.977, 389.82
434.332, 388.12
434.687, 392.06
435.043, 396.33
435.398, 391.79
435.753, 395.11
436.108, 393.55
436.463, 391.51
436.818, 394.84
437.173, 395.86
437.528, 395.65
437.882, 399.45
438.237, 391.11
438.592, 397.55
438.947, 398.57
439.301, 397.82
439.656, 390.43
440.01, 393.01
440.365, 394.09
440.72, 396.67
441.074, 395.38
441.428, 390.84
441.783, 388.87
442.137, 400.88
442.491, 392.26
442.846, 396.13
443.2, 386.9
443.554, 395.92
443.908, 398.23
444.262, 393.14
444.616, 391.65
444.97, 398.43
445.324, 393.48
445.678, 386.49
446.032, 389.89
446.385, 392.33
446.739, 393.75
447.093, 391.04
447.447, 398.5
447.8, 391.24
448.154, 391.72
448.507, 389.75
448.861, 401.89
449.214, 383.1
449.568, 393.21
449.921, 394.84
450.274, 396.33
450.628, 386.16
450.981, 394.91
451.334, 378.9
451.687, 391.31
452.041, 387.58
452.394, 389
452.747, 389.28
453.1, 398.23
453.453, 402.1
453.805, 410.65
454.158, 392.8
454.511, 400.54
454.864, 382.63
455.217, 384.39
455.569, 383.85
455.922, 393.82
456.275, 398.5
456.627, 397.69
456.98, 398.91
457.332, 390.5
457.684, 396.94
458.037, 391.72
458.389, 390.02
458.741, 395.65
459.094, 392.8
459.446, 397.08
459.798, 395.86
460.15, 394.16
460.502, 392.19
460.854, 388.06
461.206, 392.13
461.558, 389.28
461.91, 392.6
462.262, 399.86
462.614, 391.99
462.966, 392.19
463.317, 396.67
463.669, 400.94
464.021, 391.11
464.372, 384.19
464.724, 399.18
465.075, 401.83
465.427, 399.59
465.778, 396.94
466.13, 382.63
466.481, 389.95
466.832, 384.6
467.183, 392.74
467.535, 387.65
467.886, 389.62
468.237, 381.34
468.588, 388.33
468.939, 387.04
469.29, 402.98
469.641, 402.44
469.992, 406.98
470.343, 421.5
470.694, 427.34
471.044, 431.61
471.395, 417.7
471.746, 404.81
472.096, 395.31
472.447, 388.53
472.798, 381.34
473.148, 383.44
473.499, 391.45
473.849, 387.11
474.199, 398.43
474.55, 398.57
474.9, 392.8
475.25, 404.68
475.6, 402.64
475.951, 390.57
476.301, 395.59
476.651, 387.17
477.001, 392.4
477.351, 406.17
477.701, 388.53
478.051, 394.7
478.4, 381.54
478.75, 389.55
479.1, 394.23
479.45, 391.79
479.799, 392.26
480.149, 405.9
480.499, 387.72
480.848, 393.35
481.198, 395.25
481.547, 404.47
481.897, 400.13
482.246, 397.55
482.595, 400.2
482.945, 387.04
483.294, 404.13
483.643, 399.86
483.992, 396.94
484.341, 400.61
484.69, 395.25
485.039, 392.6
485.388, 385.54
485.737, 398.43
486.086, 408.68
486.435, 403.39
486.784, 397.96
487.132, 392.13
487.481, 392.87
487.83, 385.41
488.178, 393.41
488.527, 410.65
488.876, 399.32
489.224, 393.89
489.572, 376.86
489.921, 382.83
490.269, 391.72
490.618, 389.28
490.966, 389.68
491.314, 378.29
491.662, 388.8
492.01, 380.66
492.358, 397.08
492.706, 401.56
493.054, 390.16
493.402, 395.38
493.75, 390.36
494.098, 395.52
494.446, 393.35
494.794, 397.62
495.142, 395.52
495.489, 399.05
495.837, 401.49
496.184, 393.69
496.532, 392.26
496.88, 396.87
497.227, 399.25
497.574, 384.12
497.922, 388.53
498.269, 391.31
498.616, 396.06
498.964, 399.66
499.311, 391.99
499.658, 380.05
500.005, 391.18
500.352, 405.76
500.699, 394.64
501.046, 380.86
501.393, 394.03
501.74, 401.08
502.087, 397.08
502.434, 403.52
502.78, 442.12
503.127, 463.56
503.474, 508.68
503.82, 499.45
504.167, 450.13
504.513, 410.65
504.86, 382.7
505.206, 403.86
505.553, 400.81
505.899, 394.3
506.245, 384.6
506.592, 405.35
506.938, 407.8
507.284, 431.41
507.63, 459.83
507.976, 460.37
508.322, 421.84
508.668, 404.27
509.014, 392.53
509.36, 399.18
509.706, 396.06
510.052, 405.22
510.398, 397.01
510.743, 426.79
511.089, 498.57
511.435, 555.22
511.78, 540.9
512.126, 468.51
512.471, 422.52
512.817, 392.19
513.162, 396.33
513.508, 397.82
513.853, 417.16
514.198, 453.73
514.543, 454.54
514.889, 448.09
515.234, 429.3
515.579, 426.05
515.924, 399.32
516.269, 399.59
516.614, 395.04
516.959, 398.57
517.304, 392.26
517.648, 393.08
517.993, 391.24
518.338, 421.3
518.683, 454.2
519.027, 458.81
519.372, 434.93
519.716, 437.85
520.061, 448.77
520.405, 452.03
520.75, 441.58
521.094, 427.34
521.439, 403.18
521.783, 401.56
522.127, 408.61
522.471, 403.18
522.815, 397.35
523.159, 406.44
523.504, 403.79
523.848, 393.55
524.192, 393.62
524.535, 396.6
524.879, 387.58
525.223, 401.62
525.567, 394.64
525.911, 382.42
526.254, 386.29
526.598, 393.55
526.942, 402.84
527.285, 391.04
527.629, 404.95
527.972, 396.4
528.316, 406.91
528.659, 386.22
529.002, 391.24
529.346, 399.25
529.689, 411.32
530.032, 406.03
530.375, 402.78
530.718, 416.07
531.061, 402.98
531.404, 410.37
531.747, 411.8
532.09, 441.04
532.433, 528.69
532.776, 694.22
533.119, 697.82
533.461, 686.35
533.804, 749.17
534.147, 764.78
534.489, 636.08
534.832, 486.9
535.174, 426.39
535.517, 412.88
535.859, 420.96
536.202, 416.34
536.544, 396.54
536.886, 398.91
537.229, 413.36
537.571, 414.45
537.913, 391.65
538.255, 396.94
538.597, 409.49
538.939, 455.96
539.281, 631.47
539.623, 1173.65
539.965, 1492.98
540.307, 1214.77
540.648, 673.8
540.99, 477.13
541.332, 420.96
541.674, 417.5
542.015, 397.96
542.357, 394.77
542.698, 399.38
543.04, 414.99
543.381, 414.17
543.722, 414.85
544.064, 386.56
544.405, 407.32
544.746, 394.91
545.087, 402.78
545.429, 401.49
545.77, 395.31
546.111, 397.82
546.452, 386.77
546.793, 389.95
547.134, 407.93
547.474, 385.82
547.815, 396.26
548.156, 398.71
548.497, 398.84
548.837, 391.99
549.178, 400.06
549.519, 398.23
549.859, 401.01
550.2, 390.5
550.54, 386.83
550.881, 390.29
551.221, 399.66
551.561, 390.77
551.901, 397.96
552.242, 395.18
552.582, 396.47
552.922, 388.8
553.262, 401.01
553.602, 396.2
553.942, 400.81
554.282, 398.77
554.622, 401.49
554.962, 396.26
555.302, 400.67
555.641, 433.44
555.981, 465.46
556.321, 475.71
556.66, 429.1
557, 408.68
557.339, 404.61
557.679, 396.33
558.018, 406.44
558.358, 403.05
558.697, 407.32
559.036, 400.33
559.376, 397.01
559.715, 405.63
560.054, 398.71
560.393, 409.49
560.732, 411.87
561.071, 380.93
561.41, 407.32
561.749, 390.77
562.088, 389.34
562.427, 403.12
562.766, 397.21
563.104, 410.17
563.443, 401.96
563.782, 400.88
564.12, 408.61
564.459, 408.95
564.797, 440.5
565.136, 508.68
565.474, 569.05
565.813, 540.7
566.151, 476.18
566.489, 431
566.827, 421.03
567.166, 408.95
567.504, 402.23
567.842, 404
568.18, 432.76
568.518, 480.66
568.856, 499.11
569.194, 491.04
569.531, 447.96
569.869, 424.89
570.207, 426.32
570.545, 420.89
570.882, 406.78
571.22, 425.71
571.558, 473.81
571.895, 468.11
572.233, 451.76
572.57, 411.94
572.907, 416.48
573.245, 416.01
573.582, 422.93
573.919, 433.64
574.257, 523.81
574.594, 618.71
574.931, 608.61
575.268, 544.63
575.605, 585.07
575.942, 1016.47
576.279, 1331.38
576.616, 1161.44
576.952, 719.59
577.289, 519.06
577.626, 455.15
577.963, 435.14
578.299, 439.61
578.636, 426.86
578.972, 433.44
579.309, 436.97
579.645, 461.12
579.982, 533.71
580.318, 608.67
580.654, 587.24
580.991, 538.73
581.327, 647.21
581.663, 915.86
581.999, 976.58
582.335, 792.12
582.671, 577.06
583.007, 523.26
583.343, 550.26
583.679, 686.28
584.015, 1291.09
584.351, 5582.17
584.686, 29764.38
585.022, 48380.04
585.358, 46751.72
585.693, 25468.62
586.029, 7355.47
586.364, 2502.53
586.7, 1554.65
587.035, 1518.69
587.371, 3020.9
587.706, 11103.01
588.041, 17491.46
588.376, 14075.46
588.712, 5774.57
589.047, 2019.02
589.382, 971.83
589.717, 973.59
590.052, 1127.32
590.387, 1129.35
590.722, 890.49
591.057, 706.43
591.391, 632.08
591.726, 597.21
592.061, 556.3
592.395, 518.85
592.73, 517.5
593.065, 626.04
593.399, 1270.87
593.734, 5778.23
594.068, 22436.47
594.402, 31146.31
594.737, 22981.16
595.071, 7906.95
595.405, 2647.64
595.739, 1236.27
596.074, 1054.66
596.408, 1027.25
596.742, 1618.35
597.076, 4872.28
597.41, 7579.68
597.744, 6093.83
598.077, 2728.03
598.411, 1232.74
598.745, 827.05
599.079, 713.15
599.412, 600.67
599.746, 534.59
600.079, 502.16
600.413, 478.22
600.746, 469.74
601.08, 462.82
601.413, 470.96
601.747, 517.83
602.08, 941.1
602.413, 3812.2
602.746, 7938.83
603.079, 7671.06
603.412, 4265.58
603.746, 1568.08
604.079, 796.12
604.411, 609.22
604.744, 547.75
605.077, 519.33
605.41, 533.64
605.743, 543.48
606.075, 644.97
606.408, 1295.16
606.741, 6756.97
607.073, 21049.59
607.406, 24829.63
607.738, 16148.89
608.071, 5231.3
608.403, 2292.15
608.735, 3877.53
609.068, 19788.02
609.4, 35537.66
609.732, 31611.76
610.064, 14713.71
610.396, 4624.25
610.728, 1777.85
611.06, 1063.75
611.392, 839.88
611.724, 720.41
612.056, 797.07
612.388, 1415.37
612.72, 1864.62
613.051, 1917.06
613.383, 4219.11
613.714, 25754.77
614.046, 45216.2
614.378, 43930.14
614.709, 25640.33
615.04, 7665.57
615.372, 3377.54
615.703, 6778.21
616.034, 15595.64
616.366, 16246.85
616.697, 9631.74
617.028, 3261.06
617.359, 1408.25
617.69, 951.75
618.021, 853.51
618.352, 761.05
618.683, 615.05
619.014, 538.26
619.344, 505.96
619.675, 493.34
620.006, 520.14
620.336, 567.43
620.667, 795.85
620.998, 3034.81
621.328, 9597.27
621.659, 12052.78
621.989, 8279.19
622.319, 3105.63
622.65, 1307.37
622.98, 757.72
623.31, 628.82
623.64, 561.66
623.97, 533.3
624.3, 532.9
624.63, 536.02
624.96, 554.33
625.29, 643.21
625.62, 1211.17
625.95, 7340.27
626.28, 22969.76
626.609, 27220.21
626.939, 17691.53
627.269, 5962.01
627.598, 2203.01
627.928, 1080.17
628.257, 783.16
628.587, 666.75
628.916, 620.07
629.245, 650.13
629.575, 1235.12
629.904, 6011.67
630.233, 12066.62
630.562, 11175.73
630.891, 5958.69
631.22, 2245.75
631.549, 1105.07
631.878, 821.36
632.207, 969.52
632.536, 2824.16
632.865, 18610.64
633.194, 37217.06
633.522, 35516.83
633.851, 19219.71
634.18, 6032.29
634.508, 2275.33
634.837, 1179.96
635.165, 883.97
635.494, 732.76
635.822, 629.3
636.15, 594.09
636.479, 615.05
636.807, 715.93
637.135, 926.51
637.463, 3449.99
637.791, 20494.72
638.119, 34472.08
638.447, 29553.47
638.775, 13645.96
639.103, 5462.5
639.431, 12309.42
639.758, 48458.66
640.086, 53774.08
640.414, 51405.48
640.741, 33941.15
641.069, 9290.23
641.397, 3339.21
641.724, 1601.19
642.052, 1190
642.379, 877.39
642.706, 674.68
643.034, 566.07
643.361, 518.72
643.688, 500.13
644.015, 512.2
644.342, 534.8
644.669, 498.3
644.996, 476.32
645.323, 466.21
645.65, 458.27
645.977, 449.11
646.304, 455.9
646.63, 471.5
646.957, 462.14
647.284, 467.23
647.61, 485.88
647.937, 477.74
648.263, 485.41
648.59, 478.56
648.916, 542.12
649.243, 633.71
649.569, 983.09
649.895, 6077.75
650.221, 30703.78
650.548, 41054.42
650.874, 33329.64
651.2, 13226.91
651.526, 4388.51
651.852, 1757.22
652.178, 1087.36
652.504, 2156.54
652.829, 9525.63
653.155, 14442.14
653.481, 11454.9
653.806, 5070.85
654.132, 1905.46
654.458, 903.65
654.783, 618.1
655.109, 527.74
655.434, 485.95
655.759, 470.35
656.085, 451.55
656.41, 450.54
656.735, 448.16
657.06, 443.28
657.386, 437.71
657.711, 453.32
658.036, 454.61
658.361, 491.72
658.686, 570.07
659.01, 1264.09
659.335, 8295.61
659.66, 17484.07
659.985, 15948.62
660.309, 8619.41
660.634, 2946.07
660.959, 1243.67
661.283, 719.8
661.608, 561.05
661.932, 490.77
662.256, 458.95
662.581, 443.82
662.905, 422.04
663.229, 428.9
663.553, 432.63
663.878, 432.29
664.202, 445.52
664.526, 470.14
664.85, 538.46
665.174, 551.96
665.498, 510.78
665.821, 490.09
666.145, 503.72
666.469, 579.43
666.793, 890.01
667.116, 6159.02
667.44, 24758.19
667.763, 29888.19
668.087, 20698.65
668.41, 7452.89
668.734, 2578.98
669.057, 1164.5
669.38, 753.04
669.703, 599.11
670.027, 543.55
670.35, 551.69
670.673, 757.92
670.996, 4291.49
671.319, 16061.51
671.642, 19056.96
671.965, 13263.47
672.288, 4914.27
672.61, 1796.16
672.933, 880.99
673.256, 638.8
673.578, 535.07
673.901, 482.76
674.224, 444.23
674.546, 411.8
674.868, 420.08
675.191, 408
675.513, 405.35
675.836, 426.86
676.158, 420.69
676.48, 412.14
676.802, 404.81
677.124, 396.33
677.446, 417.43
677.768, 398.37
678.09, 396.13
678.412, 415.8
678.734, 397.48
679.056, 392.74
679.377, 396.13
679.699, 399.11
680.021, 399.93
680.342, 401.01
680.664, 401.08
680.985, 395.31
681.307, 400.2
681.628, 396.74
681.949, 399.66
682.271, 406.85
682.592, 402.98
682.913, 393.82
683.234, 382.9
683.555, 403.32
683.876, 402.03
684.197, 404.2
684.518, 412.27
684.839, 405.69
685.16, 386.16
685.481, 393.69
685.802, 407.86
686.122, 406.58
686.443, 408.34
686.763, 398.84
687.084, 392.6
687.405, 402.64
687.725, 401.76
688.045, 402.64
688.366, 400.33
688.686, 397.35
689.006, 413.63
689.326, 413.63
689.646, 415.8
689.967, 422.86
690.287, 429.85
690.607, 432.15
690.926, 429.3
691.246, 457.32
691.566, 530.45
691.886, 712.67
692.206, 3819.12
692.525, 17551.77
692.845, 21902.69
693.165, 16228.81
693.484, 6640.63
693.804, 2183.27
694.123, 903.99
694.442, 619.05
694.762, 512.34
695.081, 465.87
695.4, 425.16
695.719, 423.74
696.038, 412.68
696.357, 412.68
696.677, 407.12
696.995, 412.41
697.314, 408.81
697.633, 404.47
697.952, 405.97
698.271, 393.62
698.59, 414.78
698.908, 414.38
699.227, 414.04
699.545, 413.36
699.864, 440.63
700.182, 431.34
700.501, 450.4
700.819, 460.37
701.137, 464.31
701.456, 520.68
701.774, 1137.77
702.092, 2366.78
702.41, 4746.77
702.728, 21861.31
703.046, 33829.56
703.364, 28022.09
703.682, 13419.37
704, 4335.12
704.318, 1544.07
704.635, 893.2
704.953, 721.7
705.271, 771.29
705.588, 942.52
705.906, 902.63
706.223, 713.15
706.541, 514.38
706.858, 447.35
707.176, 410.44
707.493, 406.58
707.81, 403.79
708.127, 400.33
708.444, 387.58
708.761, 391.72
709.078, 404.88
709.395, 393.96
709.712, 399.11
710.029, 394.64
710.346, 386.49
710.663, 397.15
710.98, 406.98
711.296, 403.39
711.613, 389.21
711.929, 385.61
712.246, 389.68
712.562, 395.38
712.879, 390.36
713.195, 396.2
713.512, 395.25
713.828, 398.23
714.144, 406.3
714.46, 403.66
714.776, 412
715.092, 402.03
715.408, 406.71
715.724, 415.4
716.04, 418.85
716.356, 482.29
716.672, 1336.88
716.988, 4124.33
717.303, 4782.46
717.619, 3397.08
717.935, 1539.93
718.25, 777.33
718.566, 525.23
718.881, 445.04
719.196, 429.91
719.512, 413.83
719.827, 403.45
720.142, 397.89
720.457, 404.27
720.773, 402.51
721.088, 397.15
721.403, 403.32
721.718, 420.62
722.033, 412.61
722.348, 414.65
722.662, 421.91
722.977, 443.62
723.292, 507.79
723.607, 1111.24
723.921, 6476.72
724.236, 12967.08
724.55, 12061.26
724.865, 6013.03
725.179, 2290.32
725.493, 1052.97
725.808, 664.98
726.122, 526.45
726.436, 474.28
726.75, 437.58
727.064, 409.42
727.379, 407.19
727.693, 398.98
728.006, 398.1
728.32, 387.58
728.634, 389.68
728.948, 399.38
729.262, 373.67
729.575, 386.43
729.889, 394.84
730.203, 381.27
730.516, 384.93
730.83, 383.92
731.143, 393.28
731.456, 390.9
731.77, 397.01
732.083, 376.52
732.396, 396.54
732.709, 381.61
733.023, 390.84
733.336, 390.7
733.649, 386.09
733.962, 380.59
734.275, 379.1
734.587, 390.36
734.9, 382.9
735.213, 389.68
735.526, 384.8
735.838, 387.92
736.151, 383.31
736.463, 378.35
736.776, 376.79
737.088, 370.21
737.401, 384.87
737.713, 376.12
738.025, 382.49
738.338, 375.78
738.65, 390.23
738.962, 371.64
739.274, 382.49
739.586, 380.05
739.898, 378.01
740.21, 386.36
740.522, 381.61
740.834, 379.51
741.145, 386.16
741.457, 385.75
741.769, 392.74
742.08, 395.99
742.392, 397.62
742.703, 441.58
743.015, 633.84
743.326, 1831.98
743.638, 3006.65
743.949, 2857.2
744.26, 1567.61
744.571, 819.46
744.882, 567.02
745.194, 479.84
745.505, 421.77
745.816, 416.07
746.127, 394.57
746.437, 403.86
746.748, 439.28
747.059, 470.01
747.37, 472.59
747.68, 431.68
747.991, 471.91
748.302, 820.61
748.612, 1174.47
748.923, 1181.12
749.233, 821.29
749.543, 552.57
749.854, 460.17
750.164, 415.73
750.474, 398.57
750.784, 395.65
751.094, 391.85
751.404, 386.09
751.714, 386.9
752.024, 389.62
752.334, 401.28
752.644, 428.35
752.954, 661.18
753.263, 934.65
753.573, 991.91
753.883, 930.04
754.192, 756.97
754.502, 664.91
754.811, 524.08
755.121, 442.94
755.43, 406.24
755.739, 397.89
756.049, 390.29
756.358, 382.49
756.667, 379.24
756.976, 388.94
757.285, 373.74
757.594, 389.95
757.903, 381.75
758.212, 376.59
758.521, 380.19
758.829, 391.18
759.138, 370.48
759.447, 381.41
759.755, 377.34
760.064, 376.73
760.373, 384.53
760.681, 388.46
760.989, 383.03
761.298, 379.98
761.606, 377.81
761.914, 383.98
762.222, 374.89
762.531, 379.98
762.839, 385.41
763.147, 386.36
763.455, 364.45
763.763, 371.98
764.071, 381.41
764.378, 382.02
764.686, 373.06
764.994, 376.73
765.301, 382.83
765.609, 360.51
765.917, 374.69
766.224, 368.58
766.532, 383.24
766.839, 368.99
767.146, 373.06
767.454, 381.61
767.761, 374.35
768.068, 374.76
768.375, 382.22
768.682, 388.8
768.989, 370.15
769.296, 379.03
769.603, 383.03
769.91, 383.31
770.217, 372.86
770.524, 372.25
770.83, 384.26
771.137, 372.72
771.444, 373.2
771.75, 386.97
772.057, 362.61
772.363, 376.39
772.67, 368.58
772.976, 380.8
773.282, 374.89
773.588, 377
773.895, 375.91
774.201, 370.76
774.507, 380.19
774.813, 380.73
775.119, 370.96
775.425, 372.99
775.731, 378.63
776.036, 380.46
776.342, 377.34
776.648, 383.65
776.953, 375.3
777.259, 365.53
777.565, 374.28
777.87, 370.76
778.175, 375.37
778.481, 372.25
778.786, 375.98
779.091, 372.59
779.397, 373.4
779.702, 379.71
780.007, 382.56
780.312, 377.27
780.617, 385.82
780.922, 372.86
781.227, 381.54
781.532, 372.18
781.836, 369.2
782.141, 377
782.446, 378.42
782.751, 385.27
783.055, 384.19
783.36, 376.59
783.664, 368.99
783.968, 379.71
784.273, 375.23
784.577, 380.19
784.881, 385.48
785.186, 365.6
785.49, 381.54
785.794, 368.52
786.098, 384.93
786.402, 370.55
786.706, 369.33
787.01, 375.84
787.313, 368.31
787.617, 379.64
787.921, 365.53
788.225, 374.08
788.528, 374.01
788.832, 373.13
789.135, 373.06
789.439, 372.45
789.742, 365.74
790.045, 374.62
790.349, 376.45
790.652, 384.19
790.955, 372.52
791.258, 369.6
791.561, 366.35
791.864, 374.69
792.167, 375.23
792.47, 374.01
792.773, 370.82
793.076, 372.79
793.379, 370.48
793.681, 389.62
793.984, 370.96
794.287, 387.04
794.589, 378.63
794.892, 375.03
795.194, 383.31
795.496, 378.35
795.799, 375.71
796.101, 369.47
796.403, 383.98
796.705, 362.55
797.007, 378.96
797.309, 368.99
797.611, 379.64
797.913, 391.04
798.215, 365.67
798.517, 374.83
798.819, 387.78
799.121, 379.78
799.422, 358.75
799.724, 378.9
800.025, 380.93
800.327, 393.89
800.628, 380.86
800.93, 367.5
801.231, 372.52
801.532, 381.47
801.834, 383.58
802.135, 372.66
802.436, 362.21
802.737, 372.25
803.038, 384.39
803.339, 379.17
803.64, 377
803.941, 382.09
804.242, 380.39
804.542, 382.42
804.843, 382.22
805.144, 375.84
805.444, 367.23
805.745, 371.43
806.045, 381.41
806.346, 379.24
806.646, 376.93
806.946, 374.42
807.247, 382.9
807.547, 377.4
807.847, 385.88
808.147, 370.96
808.447, 372.99
808.747, 383.92
809.047, 369.81
809.347, 379.24
809.647, 380.46
809.946, 386.36
810.246, 370.89
810.546, 365.33
810.845, 374.69
811.145, 363.97
811.444, 379.57
811.744, 385.48
812.043, 378.76
812.343, 370.15
812.642, 373.2
812.941, 378.96
813.24, 371.37
813.539, 368.92
813.838, 370.08
814.137, 375.3
814.436, 381.27
814.735, 380.12
815.034, 375.84
815.333, 370.69
815.632, 388.33
815.93, 372.79
816.229, 371.23
816.527, 373.33
816.826, 388.87
817.124, 375.84
817.423, 365.19
817.721, 370.48
818.019, 358.41
818.318, 376.25
818.616, 377.13
818.914, 388.87
819.212, 379.24
819.51, 375.71
819.808, 376.59
820.106, 367.84
820.404, 378.15
820.702, 378.9
820.999, 373.6
821.297, 373.2
821.595, 365.87
821.892, 371.16
822.19, 366.07
822.487, 385.21
822.785, 377
823.082, 381.68
823.379, 374.08
823.677, 383.37
823.974, 370.62
824.271, 372.86
824.568, 384.53
824.865, 370.82
825.162, 379.17
825.459, 378.15
825.756, 376.18
826.053, 372.18
826.349, 374.49
826.646, 371.43
826.943, 374.55
827.239, 374.55
827.536, 373.54
827.832, 371.91
828.129, 380.93
828.425, 374.83
828.721, 367.02
829.018, 375.03
829.314, 372.38
829.61, 372.38
829.906, 368.45
830.202, 383.37
830.498, 381.95
830.794, 379.03
831.09, 369.87
831.386, 372.18
831.681, 370.69
831.977, 371.57
832.273, 378.56
832.568, 376.52
832.864, 379.17
833.159, 367.23
833.455, 379.64
833.75, 384.53
834.045, 372.32
834.341, 379.64
834.636, 377.4
834.931, 380.05
835.226, 370.35
835.521, 378.69
835.816, 381.75
836.111, 376.39
836.406, 370.01
836.701, 370.89
836.996, 369.06
837.29, 371.57
837.585, 375.44
837.88, 379.57
838.174, 377.47
838.469, 364.31
838.763, 369.53
839.057, 374.28
839.352, 381.2
839.646, 379.24
839.94, 384.46
840.234, 367.84
840.528, 380.86
840.822, 379.03
841.116, 387.65
841.41, 379.3
841.704, 367.43
841.998, 377.74
842.292, 366.75
842.586, 379.91
842.879, 367.77
843.173, 376.45
843.466, 389.89
843.76, 379.91
844.053, 364.04
844.347, 372.72
844.64, 367.7
844.933, 379.3
845.226, 367.91
845.52, 373.67
845.813, 368.92
846.106, 367.7
846.399, 376.05
846.692, 374.76
846.984, 371.71
847.277, 378.22
847.57, 375.5
847.863, 376.25
848.155, 376.79
848.448, 383.37
848.74, 385.88
849.033, 370.62
849.325, 368.52
849.618, 364.72
849.91, 366.48
850.202, 368.92
850.495, 367.57
850.787, 366.07
851.079, 376.59
851.371, 375.03
851.663, 378.29
851.955, 377.81
852.247, 380.05
852.538, 370.82
852.83, 369.74
853.122, 378.76
853.413, 387.24
853.705, 377.13
853.997, 379.91
854.288, 376.39
854.579, 380.46
854.871, 368.72
855.162, 373.06
855.453, 365.26
855.745, 374.08
856.036, 371.71
856.327, 375.57
856.618, 371.84
856.909, 370.62
857.2, 375.5
857.491, 372.86
857.781, 381.34
858.072, 379.71
858.363, 377.4
858.653, 382.15
858.944, 391.24
859.234, 382.63
859.525, 372.86
859.815, 371.16
860.106, 370.69
860.396, 368.79
860.686, 375.64
860.976, 374.62
861.267, 375.98
861.557, 373.54
861.847, 364.51
862.137, 361.46
862.426, 377.81
862.716, 371.16
863.006, 369.33
863.296, 367.91
863.585, 376.52
863.875, 374.35
864.165, 378.08
864.454, 372.79
864.744, 369.87
865.033, 369.4
865.322, 367.36
865.612, 380.73
865.901, 372.45
866.19, 378.35
866.479, 380.93
866.768, 370.62
867.057, 377.13
867.346, 365.46
867.635, 371.98
867.924, 368.92
868.213, 379.91
868.501, 380.12
868.79, 369.33
869.079, 375.1
869.367, 386.09
869.656, 375.78
869.944, 364.58
870.232, 366.55
870.521, 373.47
870.809, 371.5
871.097, 373.47
871.385, 373.6
871.673, 368.04
871.961, 379.71
872.249, 379.71
872.537, 379.71
