wavelength, amplitude
179.267, 22.84
179.649, 22.84
180.031, 22.84
180.413, -44.22
180.795, -60.02
181.177, -67.29
181.559, -52.21
181.941, -66.94
182.323, -51.68
182.705, -46
183.087, -32.16
183.469, -41.39
183.85, -24
184.232, 7.23
184.614, -2.53
184.995, 14.33
185.377, 38.46
185.759, 53.36
186.14, 78.73
186.522, 87.78
186.903, 104.28
187.285, 127
187.666, 134.27
188.047, 158.58
188.429, 170.11
188.81, 193
189.191, 200.1
189.573, 220.5
189.954, 240.37
190.335, 262.38
190.716, 254.39
191.097, 292.89
191.478, 288.81
191.859, 327.14
192.24, 310.81
192.621, 331.4
193.002, 327.67
193.383, 326.07
193.764, 344.53
194.145, 356.77
194.526, 359.61
194.906, 355.17
195.287, 365.28
195.668, 368.66
196.048, 365.82
196.429, 351.27
196.81, 368.12
197.19, 368.48
197.571, 375.4
197.951, 371.14
198.331, 370.25
198.712, 362.45
199.092, 375.58
199.472, 376.46
199.853, 357.48
200.233, 361.2
200.613, 356.77
200.993, 363.69
201.373, 360.67
201.754, 348.07
202.134, 371.14
202.514, 365.46
202.894, 359.25
203.274, 351.27
203.654, 359.78
204.033, 341.86
204.413, 361.2
204.793, 357.12
205.173, 364.22
205.553, 347.54
205.932, 338.49
206.312, 361.74
206.692, 351.62
207.071, 353.93
207.451, 338.67
207.83, 329.8
208.21, 327.85
208.589, 335.48
208.969, 334.06
209.348, 328.02
209.727, 342.22
210.107, 338.67
210.486, 327.14
210.865, 338.67
211.244, 352.16
211.623, 322.52
212.003, 314.36
212.382, 339.2
212.761, 340.98
213.14, 341.15
213.519, 336.36
213.898, 348.25
214.276, 341.51
214.655, 348.07
215.034, 347.54
215.413, 347.9
215.792, 340.98
216.17, 340.44
216.549, 352.86
216.928, 342.4
217.306, 351.98
217.685, 338.32
218.064, 347.01
218.442, 348.07
218.82, 321.64
219.199, 345.24
219.577, 347.36
219.956, 348.07
220.334, 324.48
220.712, 352.51
221.091, 358.01
221.469, 352.51
221.847, 366.88
222.225, 357.12
222.603, 343.46
222.981, 356.59
223.359, 354.46
223.737, 340.98
224.115, 340.98
224.493, 342.04
224.871, 349.49
225.249, 338.14
225.627, 359.61
226.004, 341.69
226.382, 353.04
226.76, 344.88
227.137, 357.66
227.515, 338.14
227.893, 347.36
228.27, 353.22
228.648, 345.77
229.025, 358.19
229.403, 333.52
229.78, 358.72
230.157, 333.7
230.535, 373.09
230.912, 358.54
231.289, 342.4
231.667, 364.22
232.044, 373.27
232.421, 354.11
232.798, 366.53
233.175, 359.78
233.552, 345.95
233.929, 359.96
234.306, 342.04
234.683, 359.78
235.06, 359.96
235.437, 358.37
235.814, 364.04
236.19, 358.01
236.567, 348.25
236.944, 351.45
237.32, 374.51
237.697, 351.8
238.074, 352.16
238.45, 366.17
238.827, 350.38
239.203, 362.45
239.58, 365.99
239.956, 353.04
240.332, 365.99
240.709, 355.88
241.085, 365.64
241.461, 354.82
241.838, 356.59
242.214, 358.19
242.59, 364.4
242.966, 364.75
243.342, 370.79
243.718, 340.98
244.094, 362.62
244.47, 351.09
244.846, 365.28
245.222, 365.99
245.598, 368.48
245.973, 377.53
246.349, 354.46
246.725, 374.51
247.101, 365.82
247.476, 375.04
247.852, 353.22
248.228, 363.87
248.603, 351.62
248.979, 367.77
249.354, 352.16
249.73, 364.58
250.105, 356.59
250.48, 374.69
250.856, 377.17
251.231, 377.88
251.606, 376.29
251.981, 373.27
252.357, 366.17
252.732, 354.28
253.107, 359.61
253.482, 361.74
253.857, 368.3
254.232, 367.06
254.607, 373.8
254.982, 372.91
255.357, 362.62
255.731, 371.14
256.106, 360.49
256.481, 372.38
256.856, 354.82
257.23, 372.56
257.605, 365.46
257.98, 381.25
258.354, 369.9
258.729, 374.16
259.103, 364.58
259.478, 366.17
259.852, 377.71
260.227, 361.56
260.601, 364.04
260.975, 362.62
261.35, 368.48
261.724, 358.19
262.098, 361.74
262.472, 380.01
262.846, 350.91
263.22, 381.43
263.594, 360.67
263.968, 366.35
264.342, 374.33
264.716, 390.83
265.09, 373.62
265.464, 360.14
265.838, 358.19
266.212, 387.29
266.586, 383.74
266.959, 378.77
267.333, 371.85
267.707, 383.38
268.08, 383.56
268.454, 377.35
268.827, 389.59
269.201, 383.74
269.574, 379.12
269.948, 377.35
270.321, 374.87
270.694, 390.48
271.068, 385.87
271.441, 381.96
271.814, 370.61
272.187, 389.06
272.56, 364.04
272.933, 368.3
273.307, 377.35
273.68, 377.17
274.053, 362.98
274.425, 377.35
274.798, 352.16
275.171, 370.08
275.544, 381.61
275.917, 378.59
276.29, 373.45
276.662, 379.48
277.035, 375.58
277.408, 381.96
277.78, 368.3
278.153, 384.09
278.525, 392.08
278.898, 368.66
279.27, 386.75
279.643, 383.92
280.015, 374.33
280.388, 388.53
280.76, 381.25
281.132, 382.67
281.504, 383.21
281.877, 379.3
282.249, 382.14
282.621, 392.79
282.993, 368.12
283.365, 374.33
283.737, 382.85
284.109, 384.8
284.481, 391.9
284.853, 374.69
285.225, 383.03
285.596, 384.98
285.968, 373.8
286.34, 371.85
286.712, 378.41
287.083, 398.46
287.455, 385.87
287.826, 382.14
288.198, 380.37
288.569, 392.79
288.941, 383.74
289.312, 392.25
289.684, 369.01
290.055, 361.74
290.426, 383.74
290.798, 400.59
291.169, 381.25
291.54, 392.08
291.911, 389.95
292.282, 386.75
292.653, 378.41
293.024, 395.98
293.395, 397.4
293.766, 388.71
294.137, 373.45
294.508, 390.83
294.879, 390.83
295.25, 353.93
295.621, 386.58
295.991, 379.12
296.362, 387.11
296.733, 393.32
297.103, 380.9
297.474, 394.03
297.844, 380.72
298.215, 387.82
298.585, 370.08
298.956, 388.88
299.326, 377.17
299.697, 397.58
300.067, 384.62
300.437, 386.58
300.807, 360.32
301.177, 386.4
301.548, 369.01
301.918, 377.53
302.288, 384.45
302.658, 403.26
303.028, 386.4
303.398, 371.49
303.768, 395.63
304.138, 382.5
304.507, 385.16
304.877, 393.5
305.247, 377.17
305.617, 391.9
305.986, 396.51
306.356, 383.74
306.726, 411.77
307.095, 387.11
307.465, 417.27
307.834, 416.74
308.204, 426.5
308.573, 433.06
308.942, 442.47
309.312, 458.79
309.681, 452.23
310.05, 430.93
310.42, 451.52
310.789, 433.77
311.158, 459.15
311.527, 490.91
311.896, 565.07
312.265, 761.49
312.634, 1077.49
313.003, 1373.98
313.372, 1501.37
313.741, 1148.29
314.11, 725.47
314.478, 495.52
314.847, 457.02
315.216, 448.68
315.584, 433.77
315.953, 435.02
316.322, 436.08
316.69, 421.35
317.059, 446.55
317.427, 424.37
317.796, 424.72
318.164, 435.55
318.532, 446.55
318.901, 448.5
319.269, 413.55
319.637, 440.34
320.005, 444.6
320.374, 422.24
320.742, 427.56
321.11, 436.97
321.478, 445.66
321.846, 433.06
322.214, 439.81
322.582, 445.13
322.95, 462.69
323.317, 479.73
323.685, 471.92
324.053, 452.05
324.421, 474.58
324.788, 455.24
325.156, 462.16
325.524, 463.76
325.891, 462.87
326.259, 487.18
326.626, 469.97
326.994, 470.5
327.361, 472.63
327.728, 476.71
328.096, 487.53
328.463, 475.65
328.83, 479.37
329.198, 493.03
329.565, 539.7
329.932, 518.23
330.299, 502.79
330.666, 506.87
331.033, 486.65
331.4, 475.65
331.767, 476
332.134, 487.18
332.501, 486.29
332.867, 514.5
333.234, 544.13
333.601, 618.3
333.968, 735.4
334.334, 871.32
334.701, 788.63
335.068, 589.56
335.434, 513.08
335.801, 513.44
336.167, 509.18
336.533, 513.97
336.9, 489.49
337.266, 507.58
337.632, 512.91
337.999, 506.16
338.365, 514.33
338.731, 523.2
339.097, 523.73
339.463, 526.39
339.829, 509.89
340.195, 540.59
340.561, 560.28
340.927, 548.75
341.293, 547.33
341.659, 547.15
342.025, 554.78
342.391, 548.57
342.756, 547.51
343.122, 551.05
343.488, 548.04
343.853, 559.75
344.219, 562.94
344.585, 577.85
344.95, 587.07
345.316, 570.39
345.681, 608.19
346.046, 628.77
346.412, 594.7
346.777, 613.86
347.142, 634.98
347.507, 671.71
347.873, 662.66
348.238, 691.05
348.603, 721.21
348.968, 707.37
349.333, 696.55
349.698, 640.48
350.063, 614.22
350.428, 607.65
350.793, 592.93
351.157, 562.59
351.522, 582.1
351.887, 569.33
352.252, 578.2
352.616, 558.86
352.981, 577.67
353.346, 578.73
353.71, 565.07
354.075, 578.56
354.439, 549.46
354.803, 578.02
355.168, 580.33
355.532, 570.22
355.896, 572.88
356.261, 582.28
356.625, 579.98
356.989, 591.51
357.353, 596.3
357.717, 595.94
358.081, 585.3
358.445, 578.56
358.809, 615.28
359.173, 610.85
359.537, 618.48
359.901, 617.95
360.265, 649
360.629, 628.24
360.992, 647.75
361.356, 646.69
361.72, 623.62
362.083, 633.56
362.447, 654.5
362.81, 714.47
363.174, 851.98
363.537, 1263.79
363.901, 2507.94
364.264, 5703.81
364.627, 12820.55
364.991, 23972.41
365.354, 24658.35
365.717, 13942.44
366.08, 6163.71
366.443, 3939.27
366.806, 2675.43
367.17, 1278.87
367.533, 805.67
367.895, 711.27
368.258, 675.79
368.621, 628.24
368.984, 632.67
369.347, 632.85
369.71, 623.09
370.072, 628.41
370.435, 627.35
370.798, 648.29
371.16, 644.92
371.523, 635.16
371.885, 628.77
372.248, 631.43
372.61, 616.7
372.973, 590.44
373.335, 570.93
373.697, 551.23
374.06, 556.02
374.422, 549.81
374.784, 543.43
375.146, 546.26
375.508, 554.07
375.87, 539.7
376.232, 536.68
376.594, 549.99
376.956, 532.07
377.318, 559.93
377.68, 557.62
378.042, 521.25
378.404, 545.55
378.765, 537.22
379.127, 545.2
379.489, 547.51
379.85, 547.51
380.212, 530.12
380.573, 547.15
380.935, 549.99
381.296, 581.04
381.658, 552.3
382.019, 552.83
382.38, 569.68
382.742, 548.93
383.103, 539.88
383.464, 556.02
383.825, 562.59
384.186, 562.41
384.547, 587.07
384.909, 572.17
385.27, 572.17
385.63, 571.81
385.991, 555.14
386.352, 552.65
386.713, 572.88
387.074, 571.1
387.435, 592.75
387.795, 617.41
388.156, 610.14
388.517, 622.03
388.877, 637.64
389.238, 652.37
389.598, 644.92
389.959, 675.26
390.319, 673.48
390.679, 687.14
391.04, 634.27
391.4, 617.95
391.76, 602.33
392.121, 607.65
392.481, 594.88
392.841, 581.93
393.201, 583.88
393.561, 579.09
393.921, 598.61
394.281, 615.28
394.641, 589.73
395.001, 613.16
395.361, 585.48
395.72, 603.4
396.08, 600.03
396.44, 588.14
396.8, 609.25
397.159, 610.32
397.519, 612.27
397.878, 618.83
398.238, 646.33
398.597, 659.64
398.957, 653.79
399.316, 699.92
399.675, 705.77
400.035, 743.74
400.394, 752.26
400.753, 754.21
401.112, 735.94
401.472, 696.37
401.831, 649.71
402.19, 614.4
402.549, 609.96
402.908, 702.23
403.267, 949.56
403.625, 1770.89
403.984, 4108.54
404.343, 9093.09
404.702, 11655.18
405.061, 8255.08
405.419, 2921.88
405.778, 1172.42
406.136, 797.15
406.495, 762.02
406.853, 929.51
407.212, 1439.27
407.57, 2295.91
407.929, 2386.57
408.287, 1615.1
408.645, 848.25
409.004, 659.64
409.362, 610.49
409.72, 606.95
410.078, 605.88
410.436, 630.01
410.794, 611.74
411.152, 604.46
411.51, 597.01
411.868, 593.64
412.226, 563.65
412.584, 555.67
412.942, 529.05
413.299, 529.23
413.657, 538.1
414.015, 548.75
414.372, 534.91
414.73, 514.68
415.088, 552.65
415.445, 560.46
415.803, 568.8
416.16, 580.33
416.517, 559.75
416.875, 556.2
417.232, 545.73
417.589, 581.22
417.946, 588.85
418.304, 579.8
418.661, 607.65
419.018, 629.12
419.375, 614.93
419.732, 682
420.089, 663.19
420.446, 665.14
420.803, 660.35
421.159, 632.67
421.516, 612.62
421.873, 592.75
422.23, 549.64
422.586, 535.09
422.943, 536.51
423.299, 526.57
423.656, 526.75
424.012, 535.44
424.369, 509.18
424.725, 533.13
425.082, 552.65
425.438, 560.1
425.794, 573.41
426.15, 582.64
426.507, 604.46
426.863, 618.66
427.219, 644.74
427.575, 604.82
427.931, 647.93
428.287, 658.4
428.643, 650.42
428.999, 680.93
429.355, 711.81
429.711, 754.57
430.066, 802.3
430.422, 838.67
430.778, 943
431.133, 987.18
431.489, 895.45
431.844, 722.45
432.2, 606.77
432.555, 613.86
432.911, 614.75
433.266, 717.31
433.622, 893.32
433.977, 1165.5
434.332, 1661.41
434.687, 2926.32
435.043, 7375.38
435.398, 19601.41
435.753, 31434.78
436.108, 25936.92
436.463, 10134.96
436.818, 3055.31
437.173, 1323.05
437.528, 894.38
437.882, 745.87
438.237, 652.72
438.592, 634.8
438.947, 635.87
439.301, 591.15
439.656, 576.78
440.01, 567.38
440.365, 534.55
440.72, 533.13
441.074, 527.46
441.428, 513.62
441.783, 527.99
442.137, 511.49
442.491, 496.41
442.846, 494.81
443.2, 491.44
443.554, 521.6
443.908, 523.55
444.262, 519.65
444.616, 512.2
444.97, 526.92
445.324, 514.86
445.678, 513.44
446.032, 519.83
446.385, 505.1
446.739, 520.18
447.093, 518.94
447.447, 509.36
447.8, 521.6
448.154, 507.23
448.507, 523.38
448.861, 507.58
449.214, 529.76
449.568, 524.26
449.921, 527.99
450.274, 551.59
450.628, 563.3
450.981, 554.43
451.334, 545.02
451.687, 535.8
452.041, 513.97
452.394, 537.75
452.747, 502.97
453.1, 510.07
453.453, 516.1
453.805, 512.02
454.158, 525.68
454.511, 510.96
454.864, 493.03
455.217, 520.89
455.569, 521.6
455.922, 501.02
456.275, 498.36
456.627, 513.97
456.98, 493.74
457.332, 507.58
457.684, 506.52
458.037, 504.04
458.389, 499.6
458.741, 489.84
459.094, 509.71
459.446, 510.07
459.798, 524.79
460.15, 513.97
460.502, 516.1
460.854, 511.67
461.206, 511.31
461.558, 511.49
461.91, 501.02
462.262, 478.49
462.614, 489.49
462.966, 471.74
463.317, 505.28
463.669, 490.2
464.021, 498.36
464.372, 489.49
464.724, 484.87
465.075, 512.02
465.427, 535.09
465.778, 531.54
466.13, 538.1
466.481, 537.57
466.832, 547.86
467.183, 562.23
467.535, 583.52
467.886, 575.54
468.237, 596.83
468.588, 587.96
468.939, 577.14
469.29, 593.28
469.641, 615.28
469.992, 591.69
470.343, 574.12
470.694, 590.98
471.044, 615.11
471.395, 653.25
471.746, 619.9
472.096, 604.46
472.447, 603.22
472.798, 611.56
473.148, 665.14
473.499, 712.34
473.849, 649.88
474.199, 587.96
474.55, 549.64
474.9, 521.96
475.25, 521.42
475.6, 525.5
475.951, 510.42
476.301, 528.52
476.651, 533.49
477.001, 532.25
477.351, 518.41
477.701, 516.99
478.051, 520.18
478.4, 528.17
478.75, 541.12
479.1, 542.54
479.45, 555.85
479.799, 553.54
480.149, 564.54
480.499, 598.43
480.848, 595.41
481.198, 605.88
481.547, 592.57
481.897, 601.98
482.246, 639.95
482.595, 634.98
482.945, 653.43
483.294, 654.32
483.643, 609.43
483.992, 588.32
484.341, 600.91
484.69, 584.59
485.039, 602.33
485.388, 718.73
485.737, 1306.91
486.086, 1949.03
486.435, 1897.4
486.784, 1191.22
487.132, 771.78
487.481, 657.16
487.83, 623.09
488.178, 628.41
488.527, 629.83
488.876, 629.66
489.224, 625.4
489.572, 610.14
489.921, 623.8
490.269, 605.88
490.618, 606.06
490.966, 688.92
491.314, 891.72
491.662, 989.13
492.01, 876.64
492.358, 654.32
492.706, 585.65
493.054, 557.09
493.402, 570.39
493.75, 571.28
494.098, 568.27
494.446, 546.8
494.794, 581.4
495.142, 556.02
495.489, 548.57
495.837, 557.44
496.184, 556.02
496.532, 540.23
496.88, 540.59
497.227, 552.3
497.574, 544.49
497.922, 560.28
498.269, 594.17
498.616, 558.68
498.964, 568.27
499.311, 567.91
499.658, 575.54
500.005, 602.51
500.352, 581.57
500.699, 552.65
501.046, 559.39
501.393, 566.14
501.74, 544.84
502.087, 567.56
502.434, 555.49
502.78, 556.55
503.127, 554.25
503.474, 584.23
503.82, 572.35
504.167, 587.78
504.513, 597.72
504.86, 611.56
505.206, 632.32
505.553, 616.17
505.899, 604.99
506.245, 623.8
506.592, 633.2
506.938, 666.03
507.284, 682.89
507.63, 659.82
507.976, 669.76
508.322, 683.6
508.668, 692.47
509.014, 690.69
509.36, 715
509.706, 736.29
510.052, 735.23
510.398, 751.91
510.743, 769.83
511.089, 784.55
511.435, 851.8
511.78, 894.74
512.126, 997.82
512.471, 1165.5
512.817, 1312.76
513.162, 1312.94
513.508, 1271.6
513.853, 1300.17
514.198, 1416.56
514.543, 1500.66
514.889, 1529.23
515.234, 1532.95
515.579, 1596.3
515.924, 2185.54
516.269, 3093.28
516.614, 2834.58
516.959, 1682.88
517.304, 921.71
517.648, 697.79
517.993, 636.22
518.338, 616.17
518.683, 641.54
519.027, 639.59
519.372, 636.93
519.716, 604.28
520.061, 568.8
520.405, 539.7
520.75, 518.76
521.094, 507.76
521.439, 514.68
521.783, 527.28
522.127, 533.84
522.471, 514.68
522.815, 538.99
523.159, 525.68
523.504, 539.17
523.848, 556.38
524.192, 541.65
524.535, 548.75
524.879, 563.65
525.223, 560.46
525.567, 573.23
525.911, 577.31
526.254, 579.27
526.598, 567.91
526.942, 542.72
527.285, 562.06
527.629, 556.2
527.972, 540.76
528.316, 533.31
528.659, 524.79
529.002, 528.52
529.346, 530.12
529.689, 527.81
530.032, 511.67
530.375, 533.31
530.718, 523.73
531.061, 553.18
531.404, 571.28
531.747, 561.35
532.09, 541.83
532.433, 567.2
532.776, 577.67
533.119, 584.41
533.461, 586.72
533.804, 579.44
534.147, 570.57
534.489, 562.59
534.832, 563.3
535.174, 613.16
535.517, 608.01
535.859, 592.93
536.202, 609.43
536.544, 583.88
536.886, 562.77
537.229, 568.98
537.571, 559.75
537.913, 571.99
538.255, 562.94
538.597, 565.96
538.939, 559.57
539.281, 527.28
539.623, 528.34
539.965, 555.14
540.307, 538.28
540.648, 563.83
540.99, 551.76
541.332, 562.06
541.674, 573.41
542.015, 575.89
542.357, 600.91
542.698, 601.8
543.04, 623.45
543.381, 622.56
543.722, 617.95
544.064, 637.64
544.405, 690.51
544.746, 934.66
545.087, 1944.95
545.429, 9859.77
545.77, 39100.66
546.111, 60422.3
546.452, 52253.22
546.793, 18580.65
547.134, 5789.16
547.474, 2253.14
547.815, 1268.94
548.156, 888.53
548.497, 748.53
548.837, 661.77
549.178, 590.8
549.519, 579.44
549.859, 569.33
550.2, 568.8
550.54, 567.73
550.881, 541.83
551.221, 564.01
551.561, 543.6
551.901, 549.46
552.242, 547.68
552.582, 548.22
552.922, 561.35
553.262, 581.22
553.602, 593.11
553.942, 605.35
554.282, 597.36
554.622, 590.27
554.962, 588.49
555.302, 617.24
555.641, 605.7
555.981, 634.45
556.321, 632.67
556.66, 638.35
557, 619.01
557.339, 620.78
557.679, 665.32
558.018, 693.71
558.358, 769.47
558.697, 771.25
559.036, 673.84
559.376, 661.59
559.715, 628.41
560.054, 625.22
560.393, 656.27
560.732, 673.3
561.071, 681.11
561.41, 672.42
561.749, 695.31
562.088, 689.81
562.427, 714.47
562.766, 764.68
563.104, 903.25
563.443, 1060.46
563.782, 960.03
564.12, 719.61
564.459, 603.75
564.797, 598.43
565.136, 591.51
565.474, 579.62
565.813, 558.51
566.151, 571.46
566.489, 579.44
566.827, 586.19
567.166, 605.53
567.504, 622.03
567.842, 611.74
568.18, 621.14
568.518, 610.85
568.856, 600.2
569.194, 595.77
569.531, 584.59
569.869, 577.85
570.207, 573.94
570.545, 561.52
570.882, 533.31
571.22, 549.81
571.558, 532.78
571.895, 542.18
572.233, 525.15
572.57, 523.38
572.907, 513.44
573.245, 521.78
573.582, 510.78
573.919, 513.97
574.257, 508.12
574.594, 517.7
574.931, 498.18
575.268, 506.7
575.605, 547.15
575.942, 640.3
576.279, 1378.06
576.616, 4020
576.952, 8504.91
577.289, 7866.51
577.626, 3235.75
577.963, 1536.5
578.299, 1344.7
578.636, 3477.24
578.972, 8111.37
579.309, 9716.05
579.645, 4398.28
579.982, 1887.28
580.318, 926.14
580.654, 645.63
580.991, 550.88
581.327, 527.1
581.663, 515.04
581.999, 487.36
582.335, 472.45
582.671, 454.18
583.007, 472.28
583.343, 469.26
583.679, 458.26
584.015, 474.58
584.351, 457.55
584.686, 456.13
585.022, 458.44
585.358, 464.11
585.693, 455.42
586.029, 481.68
586.364, 487.18
586.7, 483.45
587.035, 460.74
587.371, 471.74
587.706, 465.53
588.041, 471.57
588.376, 553.54
588.712, 693.18
589.047, 883.91
589.382, 835.3
589.717, 712.52
590.052, 583.17
590.387, 499.78
590.722, 490.73
591.057, 473.52
591.391, 460.39
591.726, 487.18
592.061, 454.53
592.395, 454
592.73, 455.06
593.065, 470.86
593.399, 454.36
593.734, 436.79
594.068, 443.18
594.402, 438.21
594.737, 462.87
595.071, 444.42
595.405, 441.58
595.739, 442.29
596.074, 470.68
596.408, 441.4
596.742, 439.27
597.076, 459.32
597.41, 459.32
597.744, 451.16
598.077, 474.05
598.411, 482.57
598.745, 497.12
599.079, 494.99
599.412, 514.68
599.746, 519.47
600.079, 503.33
600.413, 542.54
600.746, 547.51
601.08, 539.17
601.413, 535.09
601.747, 527.1
602.08, 542.01
602.413, 540.94
602.746, 538.1
603.079, 551.05
603.412, 566.31
603.746, 548.75
604.079, 573.59
604.411, 565.6
604.744, 565.07
605.077, 571.1
605.41, 559.04
605.743, 542.01
606.075, 557.97
606.408, 527.28
606.741, 529.59
607.073, 525.86
607.406, 531.36
607.738, 525.68
608.071, 502.44
608.403, 509.89
608.735, 490.02
609.068, 501.91
609.4, 472.28
609.732, 483.45
610.064, 469.44
610.396, 463.94
610.728, 492.33
611.06, 472.99
611.392, 477.78
611.724, 497.83
612.056, 522.67
612.388, 513.08
612.72, 498.71
613.051, 488.24
613.383, 455.6
613.714, 474.58
614.046, 482.92
614.378, 482.03
614.709, 471.39
615.04, 471.21
615.372, 477.95
615.703, 456.84
616.034, 440.87
616.366, 462.87
616.697, 466.24
617.028, 472.81
617.359, 462.16
617.69, 449.39
618.021, 439.98
618.352, 460.92
618.683, 472.28
619.014, 476.36
619.344, 483.63
619.675, 429.87
620.006, 413.19
620.336, 411.59
620.667, 431.47
620.998, 408.05
621.328, 438.56
621.659, 402.19
621.989, 427.21
622.319, 411.59
622.65, 423.48
622.98, 416.21
623.31, 422.77
623.64, 435.55
623.97, 411.42
624.3, 406.27
624.63, 419.4
624.96, 416.74
625.29, 428.1
625.62, 409.64
625.95, 421.71
626.28, 414.97
626.609, 424.72
626.939, 423.48
627.269, 416.92
627.598, 428.27
627.928, 427.39
628.257, 425.61
628.587, 435.02
628.916, 430.58
629.245, 423.3
629.575, 427.21
629.904, 433.6
630.233, 422.95
630.562, 435.19
630.891, 415.14
631.22, 408.58
631.549, 438.39
631.878, 430.22
632.207, 420.11
632.536, 397.58
632.865, 424.55
633.194, 402.01
633.522, 414.43
633.851, 416.38
634.18, 423.3
634.508, 420.64
634.837, 403.79
635.165, 400.59
635.494, 419.93
635.822, 405.92
636.15, 409.82
636.479, 421.71
636.807, 435.37
637.135, 423.13
637.463, 411.59
637.791, 406.09
638.119, 411.24
638.447, 434.48
638.775, 437.5
639.103, 448.32
639.431, 420.29
639.758, 463.4
640.086, 450.27
640.414, 433.24
640.741, 470.68
641.069, 442.11
641.397, 451.69
641.724, 466.07
642.052, 472.81
642.379, 442.11
642.706, 460.57
643.034, 475.82
643.361, 471.92
643.688, 477.6
644.015, 465.89
644.342, 466.78
644.669, 446.55
644.996, 459.68
645.323, 435.9
645.65, 456.48
645.977, 457.55
646.304, 478.49
646.63, 459.15
646.957, 482.21
647.284, 499.78
647.61, 471.03
647.937, 476
648.263, 485.76
648.59, 458.79
648.916, 466.6
649.243, 477.07
649.569, 437.85
649.895, 455.42
650.221, 451.16
650.548, 444.24
650.874, 448.14
651.2, 432.53
651.526, 438.03
651.852, 449.03
652.178, 457.55
652.504, 456.66
652.829, 449.92
653.155, 440.69
653.481, 451.69
653.806, 452.23
654.132, 463.94
654.458, 459.5
654.783, 477.42
655.109, 478.13
655.434, 609.43
655.759, 1504.39
656.085, 3194.59
656.41, 6235.04
656.735, 5632.31
657.06, 2911.06
657.386, 1593.28
657.711, 833.17
658.036, 583.17
658.361, 483.45
658.686, 453.29
659.01, 453.65
659.335, 432.35
659.66, 429.51
659.985, 405.38
660.309, 442.64
660.634, 416.92
660.959, 409.29
661.283, 428.45
661.608, 413.37
661.932, 413.72
662.256, 391.37
662.581, 402.9
662.905, 409.82
663.229, 402.01
663.553, 415.14
663.878, 399.35
664.202, 420.82
664.526, 416.38
664.85, 404.14
665.174, 407.69
665.498, 407.51
665.821, 391.9
666.145, 402.37
666.469, 397.04
666.793, 403.79
667.116, 419.05
667.44, 419.76
667.763, 442.29
668.087, 450.63
668.41, 429.34
668.734, 412.66
669.057, 390.83
669.38, 418.87
669.703, 413.19
670.027, 392.43
670.35, 404.5
670.673, 404.67
670.996, 413.55
671.319, 420.47
671.642, 408.58
671.965, 436.26
672.288, 405.56
672.61, 416.92
672.933, 428.45
673.256, 420.11
673.578, 411.42
673.901, 399
674.224, 392.43
674.546, 380.37
674.868, 389.77
675.191, 406.27
675.513, 434.31
675.836, 432
676.158, 422.77
676.48, 403.96
676.802, 417.8
677.124, 405.03
677.446, 397.93
677.768, 401.66
678.09, 406.09
678.412, 382.85
678.734, 396.34
679.056, 411.24
679.377, 402.72
679.699, 390.83
680.021, 404.14
680.342, 404.85
680.664, 381.61
680.985, 385.69
681.307, 386.04
681.628, 408.58
681.949, 402.01
682.271, 399.17
682.592, 423.66
682.913, 413.37
683.234, 405.03
683.555, 378.06
683.876, 414.43
684.197, 413.37
684.518, 403.08
684.839, 409.64
685.16, 405.92
685.481, 397.93
685.802, 419.4
686.122, 394.03
686.443, 384.27
686.763, 399.35
687.084, 395.98
687.405, 414.79
687.725, 396.69
688.045, 395.63
688.366, 411.95
688.686, 395.98
689.006, 402.37
689.326, 391.01
689.646, 399.71
689.967, 399.53
690.287, 416.38
690.607, 439.1
690.926, 486.12
691.246, 492.68
691.566, 436.61
691.886, 419.22
692.206, 404.85
692.525, 411.42
692.845, 400.77
693.165, 405.74
693.484, 401.48
693.804, 420.64
694.123, 409.29
694.442, 409.11
694.762, 425.26
695.081, 414.43
695.4, 431.82
695.719, 478.31
696.038, 748.36
696.357, 1230.26
696.677, 2198.14
696.995, 2323.23
697.314, 1387.64
697.633, 885.69
697.952, 594.7
698.271, 496.05
698.59, 467.31
698.908, 401.84
699.227, 430.22
699.545, 407.34
699.864, 409.11
700.182, 410.71
700.501, 411.95
700.819, 417.27
701.137, 430.05
701.456, 418.87
701.774, 388.17
702.092, 396.16
702.41, 418.69
702.728, 410.71
703.046, 424.37
703.364, 436.08
703.682, 406.09
704, 431.47
704.318, 419.22
704.635, 419.93
704.953, 402.01
705.271, 399
705.588, 417.98
705.906, 427.39
706.223, 653.43
706.541, 965.53
706.858, 1606.94
707.176, 1785.97
707.493, 1127.7
707.81, 749.42
708.127, 549.81
708.444, 472.81
708.761, 439.98
709.078, 401.13
709.395, 410
709.712, 400.06
710.029, 394.38
710.346, 405.92
710.663, 418.69
710.98, 387.82
711.296, 372.03
711.613, 393.14
711.929, 377.53
712.246, 388.88
712.562, 395.45
712.879, 398.64
713.195, 412.66
713.512, 375.04
713.828, 395.98
714.144, 406.8
714.46, 430.4
714.776, 484.16
715.092, 550.17
715.408, 462.87
715.724, 426.85
716.04, 409.47
716.356, 407.34
716.672, 383.03
716.988, 397.04
717.303, 386.93
717.619, 383.74
717.935, 391.9
718.25, 395.45
718.566, 389.59
718.881, 394.21
719.196, 392.61
719.512, 397.93
719.827, 395.45
720.142, 395.63
720.457, 400.77
720.773, 386.58
721.088, 397.93
721.403, 387.82
721.718, 373.45
722.033, 380.72
722.348, 402.55
722.662, 397.22
722.977, 400.42
723.292, 393.67
723.607, 407.16
723.921, 413.01
724.236, 413.19
724.55, 406.27
724.865, 397.93
725.179, 396.69
725.493, 410.35
725.808, 408.93
726.122, 433.24
726.436, 413.9
726.75, 448.68
727.064, 533.84
727.379, 694.06
727.693, 843.46
728.006, 676.85
728.32, 538.81
728.634, 454.53
728.948, 429.51
729.262, 414.61
729.575, 424.01
729.889, 411.06
730.203, 389.95
730.516, 388.88
730.83, 386.93
731.143, 402.01
731.456, 389.06
731.77, 392.61
732.083, 381.25
732.396, 397.22
732.709, 388.53
733.023, 391.01
733.336, 370.79
733.649, 382.5
733.962, 396.16
734.275, 400.06
734.587, 363.51
734.9, 396.34
735.213, 400.42
735.526, 395.27
735.838, 413.01
736.151, 382.5
736.463, 397.75
736.776, 417.63
737.088, 420.29
737.401, 446.02
737.713, 580.15
738.025, 850.2
738.338, 1451.16
738.65, 2716.42
738.962, 2525.32
739.274, 1597.18
739.586, 979.55
739.898, 664.43
740.21, 508.29
740.522, 427.56
740.834, 439.45
741.145, 408.22
741.457, 392.96
741.769, 383.03
742.08, 386.4
742.392, 392.61
742.703, 400.59
743.015, 400.42
743.326, 396.34
743.638, 392.43
743.949, 378.06
744.26, 386.04
744.571, 392.43
744.882, 380.9
745.194, 377.71
745.505, 389.59
745.816, 386.93
746.127, 376.64
746.437, 371.32
746.748, 387.46
747.059, 388
747.37, 378.77
747.68, 394.92
747.991, 389.24
748.302, 403.61
748.612, 404.5
748.923, 390.13
749.233, 404.85
749.543, 485.94
749.854, 833.35
750.164, 1397.93
750.474, 2937.14
750.784, 4618.47
751.094, 3870.07
751.404, 3061.34
751.714, 3480.43
752.024, 3081.75
752.334, 1936.43
752.644, 1160.71
752.954, 742.32
753.263, 548.75
753.573, 450.81
753.883, 433.24
754.192, 391.72
754.502, 393.14
754.811, 387.64
755.121, 394.92
755.43, 384.62
755.739, 398.64
756.049, 393.67
756.358, 410.71
756.667, 384.98
756.976, 405.38
757.285, 378.06
757.594, 397.22
757.903, 362.45
758.212, 389.95
758.521, 375.4
758.829, 392.96
759.138, 402.01
759.447, 396.34
759.755, 397.93
760.064, 386.93
760.373, 368.83
760.681, 388.88
760.989, 392.96
761.298, 403.26
761.606, 399
761.914, 408.05
762.222, 423.66
762.531, 475.82
762.839, 836.54
763.147, 1764.15
763.455, 3395.44
763.763, 7185.89
764.071, 7608.88
764.378, 4926.31
764.686, 2697.96
764.994, 1456.84
765.301, 851.44
765.609, 597.54
765.917, 504.21
766.224, 459.15
766.532, 414.43
766.839, 386.93
767.146, 408.22
767.454, 402.9
767.761, 383.21
768.068, 394.21
768.375, 400.06
768.682, 416.38
768.989, 386.22
769.296, 370.25
769.603, 372.03
769.91, 392.61
770.217, 374.87
770.524, 385.87
770.83, 382.67
771.137, 399.88
771.444, 412.3
771.75, 533.13
772.057, 803.01
772.363, 1345.59
772.67, 2374.86
772.976, 2534.9
773.282, 1745.87
773.588, 1118.3
773.895, 726.89
774.201, 536.33
774.507, 481.68
774.813, 423.84
775.119, 381.43
775.425, 400.42
775.731, 381.61
776.036, 377.88
776.342, 373.98
776.648, 375.75
776.953, 409.47
777.259, 422.59
777.565, 478.66
777.87, 512.91
778.175, 467.13
778.481, 458.44
778.786, 403.43
779.091, 385.69
779.397, 373.27
779.702, 370.96
780.007, 381.43
780.312, 372.56
780.617, 375.75
780.922, 388.35
781.227, 368.66
781.532, 364.75
781.836, 381.25
782.141, 387.11
782.446, 374.33
782.751, 378.24
783.055, 365.28
783.36, 384.8
783.664, 379.3
783.968, 386.75
784.273, 375.04
784.577, 393.32
784.881, 380.9
785.186, 384.98
785.49, 397.22
785.794, 399
786.098, 389.95
786.402, 401.48
786.706, 378.24
787.01, 387.11
787.313, 385.87
787.617, 388
787.921, 395.27
788.225, 378.24
788.528, 397.4
788.832, 398.46
789.135, 398.11
789.439, 396.87
789.742, 413.55
790.045, 397.93
790.349, 395.27
790.652, 394.38
790.955, 384.8
791.258, 377
791.561, 394.38
791.864, 388.53
792.167, 383.56
792.47, 395.27
792.773, 374.69
793.076, 371.14
793.379, 392.25
793.681, 391.01
793.984, 402.37
794.287, 471.74
794.589, 722.45
794.892, 1268.41
795.194, 1864.22
795.496, 1740.55
795.799, 1184.13
796.101, 799.99
796.403, 591.33
796.705, 488.07
797.007, 439.45
797.309, 438.56
797.611, 401.3
797.913, 389.06
798.215, 379.3
798.517, 386.58
798.819, 391.54
799.121, 379.83
799.422, 391.37
799.724, 394.92
800.025, 395.09
800.327, 502.44
800.628, 716.42
800.93, 1031.18
801.231, 1281.71
801.532, 1483.81
801.834, 1749.06
802.135, 1732.39
802.436, 1253.15
802.737, 839.56
803.038, 558.33
803.339, 493.03
803.64, 422.59
803.941, 426.32
804.242, 405.74
804.542, 386.75
804.843, 359.78
805.144, 378.41
805.444, 386.04
805.745, 387.64
806.045, 364.93
806.346, 386.58
806.646, 375.4
806.946, 373.98
807.247, 371.49
807.547, 373.45
807.847, 362.98
808.147, 391.9
808.447, 390.3
808.747, 383.92
809.047, 383.56
809.347, 404.5
809.647, 415.68
809.946, 486.12
810.246, 650.77
810.546, 1020.89
810.845, 1526.92
811.145, 1824.3
811.444, 1957.55
811.744, 2647.93
812.043, 3631.6
812.343, 3824.47
812.642, 2782.77
812.941, 1611.2
813.24, 962.52
813.539, 673.3
813.838, 548.04
814.137, 497.65
814.436, 458.79
814.735, 418.87
815.034, 404.32
815.333, 389.59
815.632, 385.87
815.93, 385.33
816.229, 381.25
816.527, 374.69
816.826, 384.62
817.124, 377
817.423, 376.11
817.721, 371.85
818.019, 373.09
818.318, 371.14
818.616, 371.49
818.914, 374.69
819.212, 386.04
819.51, 374.51
819.808, 361.56
820.106, 365.28
820.404, 379.3
820.702, 339.56
820.999, 378.41
821.297, 373.27
821.595, 376.82
821.892, 384.62
822.19, 376.46
822.487, 358.54
822.785, 370.96
823.082, 382.32
823.379, 377.53
823.677, 372.91
823.974, 354.82
824.271, 378.95
824.568, 357.3
824.865, 384.62
825.162, 384.62
825.459, 374.51
825.756, 356.95
826.053, 390.13
826.349, 393.5
826.646, 436.61
826.943, 482.39
827.239, 566.31
827.536, 591.15
827.832, 558.86
828.129, 455.95
828.425, 424.9
828.721, 416.21
829.018, 398.29
829.314, 391.9
829.61, 375.22
829.906, 388.35
830.202, 371.67
830.498, 364.93
830.794, 376.82
831.09, 373.98
831.386, 365.11
831.681, 361.91
831.977, 354.64
832.273, 365.46
832.568, 352.51
832.864, 362.09
833.159, 358.9
833.455, 363.69
833.75, 361.91
834.045, 359.96
834.341, 372.38
834.636, 373.27
834.931, 366.7
835.226, 370.79
835.521, 360.67
835.816, 372.2
836.111, 364.93
836.406, 366.17
836.701, 360.49
836.996, 357.3
837.29, 368.12
837.585, 365.28
837.88, 376.64
838.174, 367.24
838.469, 374.51
838.763, 375.4
839.057, 362.45
839.352, 373.62
839.646, 372.03
839.94, 365.64
840.234, 371.32
840.528, 365.46
840.822, 371.32
841.116, 372.56
841.41, 395.98
841.704, 389.77
841.998, 400.77
842.292, 402.55
842.586, 381.96
842.879, 406.8
843.173, 411.59
843.466, 435.55
843.76, 414.61
844.053, 427.39
844.347, 392.61
844.64, 371.67
844.933, 380.01
845.226, 387.29
845.52, 367.06
845.813, 388.71
846.106, 359.96
846.399, 356.24
846.692, 370.96
846.984, 356.77
847.277, 371.85
847.57, 370.61
847.863, 365.11
848.155, 365.11
848.448, 361.03
848.74, 352.16
849.033, 357.66
849.325, 367.59
849.618, 363.51
849.91, 358.72
850.202, 357.66
850.495, 363.51
850.787, 371.49
851.079, 363.69
851.371, 380.19
851.663, 369.01
851.955, 364.75
852.247, 361.03
852.538, 351.98
852.83, 374.16
853.122, 391.72
853.413, 354.46
853.705, 355.53
853.997, 367.24
854.288, 372.74
854.579, 359.43
854.871, 364.4
855.162, 348.61
855.453, 364.4
855.745, 378.06
856.036, 362.62
856.327, 368.66
856.618, 373.62
856.909, 370.08
857.2, 364.4
857.491, 358.37
857.781, 347.72
858.072, 363.69
858.363, 369.37
858.653, 350.56
858.944, 359.78
859.234, 366.35
859.525, 342.22
859.815, 362.62
860.106, 366.35
860.396, 368.66
860.686, 353.93
860.976, 348.07
861.267, 368.66
861.557, 361.56
861.847, 380.01
862.137, 384.8
862.426, 365.28
862.716, 345.24
863.006, 356.41
863.296, 354.11
863.585, 348.43
863.875, 377.53
864.165, 369.01
864.454, 358.37
864.744, 366.17
865.033, 364.04
865.322, 356.24
865.612, 378.41
865.901, 352.16
866.19, 370.79
866.479, 348.78
866.768, 357.48
867.057, 351.45
867.346, 353.57
867.635, 361.2
867.924, 356.41
868.213, 374.33
868.501, 377.71
868.79, 380.9
869.079, 343.82
869.367, 352.69
869.656, 365.28
869.944, 381.43
870.232, 373.09
870.521, 380.72
870.809, 371.49
871.097, 368.66
871.385, 379.66
871.673, 353.4
871.961, 355.7
872.249, 355.7
872.537, 355.7
