wavelength, amplitude
179.267, -33.01
179.649, -33.01
180.031, -33.01
180.413, -7.64
180.795, -7.64
181.177, -72.23
181.559, -19.17
181.941, -33.01
182.323, -139.12
182.705, -56.08
183.087, -92.98
183.469, -37.63
183.85, 43.1
184.232, -0.72
184.614, -46.85
184.995, 63.86
185.377, 45.41
185.759, 43.1
186.14, 40.8
186.522, 105.38
186.903, 156.13
187.285, 110
187.666, 121.53
188.047, 121.53
188.429, 167.66
188.81, 119.22
189.191, 151.51
189.573, 243.78
189.954, 289.91
190.335, 229.94
190.716, 299.14
191.097, 301.44
191.478, 398.32
191.859, 310.67
192.24, 322.2
192.621, 366.03
193.002, 329.12
193.383, 285.3
193.764, 338.35
194.145, 349.88
194.526, 398.32
194.906, 352.19
195.287, 386.79
195.668, 352.19
196.048, 405.24
196.429, 317.59
196.81, 428.31
197.19, 354.49
197.571, 386.79
197.951, 368.33
198.331, 379.87
198.712, 370.64
199.092, 375.25
199.472, 400.63
199.853, 372.95
200.233, 345.27
200.613, 377.56
200.993, 370.64
201.373, 384.48
201.754, 393.71
202.134, 384.48
202.514, 377.56
202.894, 363.72
203.274, 389.09
203.654, 366.03
204.033, 393.71
204.413, 382.17
204.793, 389.09
205.173, 312.98
205.553, 342.96
205.932, 407.55
206.312, 389.09
206.692, 377.56
207.071, 382.17
207.451, 396.01
207.83, 340.66
208.21, 386.79
208.589, 391.4
208.969, 361.41
209.348, 276.07
209.727, 354.49
210.107, 359.11
210.486, 352.19
210.865, 349.88
211.244, 354.49
211.623, 306.06
212.003, 368.33
212.382, 354.49
212.761, 359.11
213.14, 361.41
213.519, 322.2
213.898, 386.79
214.276, 384.48
214.655, 308.36
215.034, 308.36
215.413, 368.33
215.792, 382.17
216.17, 319.9
216.549, 342.96
216.928, 379.87
217.306, 400.63
217.685, 393.71
218.064, 338.35
218.442, 363.72
218.82, 372.95
219.199, 435.23
219.577, 269.15
219.956, 347.58
220.334, 301.44
220.712, 366.03
221.091, 372.95
221.469, 345.27
221.847, 361.41
222.225, 366.03
222.603, 333.74
222.981, 389.09
223.359, 352.19
223.737, 331.43
224.115, 282.99
224.493, 299.14
224.871, 391.4
225.249, 423.69
225.627, 289.91
226.004, 361.41
226.382, 324.51
226.76, 329.12
227.137, 363.72
227.515, 407.55
227.893, 312.98
228.27, 354.49
228.648, 370.64
229.025, 389.09
229.403, 345.27
229.78, 382.17
230.157, 407.55
230.535, 363.72
230.912, 303.75
231.289, 356.8
231.667, 306.06
232.044, 437.53
232.421, 361.41
232.798, 368.33
233.175, 342.96
233.552, 368.33
233.929, 384.48
234.306, 349.88
234.683, 391.4
235.06, 363.72
235.437, 368.33
235.814, 402.93
236.19, 322.2
236.567, 347.58
236.944, 402.93
237.32, 354.49
237.697, 375.25
238.074, 359.11
238.45, 375.25
238.827, 338.35
239.203, 361.41
239.58, 370.64
239.956, 359.11
240.332, 361.41
240.709, 342.96
241.085, 391.4
241.461, 359.11
241.838, 419.08
242.214, 340.66
242.59, 400.63
242.966, 370.64
243.342, 363.72
243.718, 356.8
244.094, 428.31
244.47, 426
244.846, 451.37
245.222, 421.39
245.598, 389.09
245.973, 430.61
246.349, 396.01
246.725, 446.76
247.101, 412.16
247.476, 382.17
247.852, 490.58
248.228, 303.75
248.603, 356.8
248.979, 412.16
249.354, 379.87
249.73, 455.99
250.105, 396.01
250.48, 379.87
250.856, 352.19
251.231, 359.11
251.606, 333.74
251.981, 363.72
252.357, 368.33
252.732, 396.01
253.107, 451.37
253.482, 382.17
253.857, 412.16
254.232, 349.88
254.607, 331.43
254.982, 349.88
255.357, 393.71
255.731, 416.77
256.106, 414.47
256.481, 349.88
256.856, 363.72
257.23, 407.55
257.605, 446.76
257.98, 419.08
258.354, 405.24
258.729, 384.48
259.103, 405.24
259.478, 375.25
259.852, 458.29
260.227, 294.52
260.601, 402.93
260.975, 326.82
261.35, 370.64
261.724, 370.64
262.098, 414.47
262.472, 319.9
262.846, 361.41
263.22, 359.11
263.594, 349.88
263.968, 428.31
264.342, 310.67
264.716, 405.24
265.09, 423.69
265.464, 372.95
265.838, 407.55
266.212, 384.48
266.586, 400.63
266.959, 409.85
267.333, 416.77
267.707, 349.88
268.08, 347.58
268.454, 421.39
268.827, 421.39
269.201, 354.49
269.574, 354.49
269.948, 379.87
270.321, 398.32
270.694, 453.68
271.068, 421.39
271.441, 421.39
271.814, 359.11
272.187, 405.24
272.56, 414.47
272.933, 356.8
273.307, 389.09
273.68, 326.82
274.053, 372.95
274.425, 405.24
274.798, 421.39
275.171, 340.66
275.544, 407.55
275.917, 370.64
276.29, 391.4
276.662, 407.55
277.035, 386.79
277.408, 372.95
277.78, 446.76
278.153, 379.87
278.525, 451.37
278.898, 340.66
279.27, 435.23
279.643, 361.41
280.015, 391.4
280.388, 405.24
280.76, 359.11
281.132, 386.79
281.504, 363.72
281.877, 426
282.249, 372.95
282.621, 382.17
282.993, 391.4
283.365, 379.87
283.737, 419.08
284.109, 481.36
284.481, 389.09
284.853, 421.39
285.225, 382.17
285.596, 375.25
285.968, 423.69
286.34, 336.04
286.712, 315.28
287.083, 370.64
287.455, 366.03
287.826, 419.08
288.198, 361.41
288.569, 382.17
288.941, 382.17
289.312, 407.55
289.684, 398.32
290.055, 382.17
290.426, 389.09
290.798, 421.39
291.169, 340.66
291.54, 386.79
291.911, 375.25
292.282, 386.79
292.653, 421.39
293.024, 326.82
293.395, 423.69
293.766, 352.19
294.137, 414.47
294.508, 356.8
294.879, 379.87
295.25, 326.82
295.621, 372.95
295.991, 479.05
296.362, 366.03
296.733, 391.4
297.103, 412.16
297.474, 384.48
297.844, 396.01
298.215, 384.48
298.585, 375.25
298.956, 426
299.326, 462.9
299.697, 419.08
300.067, 375.25
300.437, 375.25
300.807, 423.69
301.177, 372.95
301.548, 393.71
301.918, 407.55
302.288, 416.77
302.658, 377.56
303.028, 402.93
303.398, 453.68
303.768, 446.76
304.138, 428.31
304.507, 409.85
304.877, 384.48
305.247, 303.75
305.617, 402.93
305.986, 352.19
306.356, 439.84
306.726, 375.25
307.095, 437.53
307.465, 361.41
307.834, 382.17
308.204, 426
308.573, 407.55
308.942, 379.87
309.312, 326.82
309.681, 412.16
310.05, 382.17
310.42, 359.11
310.789, 432.92
311.158, 352.19
311.527, 393.71
311.896, 370.64
312.265, 345.27
312.634, 349.88
313.003, 409.85
313.372, 389.09
313.741, 382.17
314.11, 361.41
314.478, 432.92
314.847, 375.25
315.216, 368.33
315.584, 389.09
315.953, 363.72
316.322, 359.11
316.69, 430.61
317.059, 349.88
317.427, 442.15
317.796, 352.19
318.164, 386.79
318.532, 389.09
318.901, 460.6
319.269, 349.88
319.637, 322.2
320.005, 400.63
320.374, 359.11
320.742, 359.11
321.11, 479.05
321.478, 322.2
321.846, 370.64
322.214, 396.01
322.582, 446.76
322.95, 419.08
323.317, 409.85
323.685, 437.53
324.053, 382.17
324.421, 421.39
324.788, 407.55
325.156, 370.64
325.524, 393.71
325.891, 379.87
326.259, 366.03
326.626, 391.4
326.994, 372.95
327.361, 384.48
327.728, 372.95
328.096, 370.64
328.463, 347.58
328.83, 412.16
329.198, 333.74
329.565, 402.93
329.932, 345.27
330.299, 412.16
330.666, 416.77
331.033, 386.79
331.4, 398.32
331.767, 449.07
332.134, 356.8
332.501, 391.4
332.867, 405.24
333.234, 368.33
333.601, 375.25
333.968, 421.39
334.334, 398.32
334.701, 409.85
335.068, 414.47
335.434, 412.16
335.801, 421.39
336.167, 405.24
336.533, 393.71
336.9, 437.53
337.266, 375.25
337.632, 384.48
337.999, 400.63
338.365, 481.36
338.731, 379.87
339.097, 398.32
339.463, 389.09
339.829, 426
340.195, 405.24
340.561, 349.88
340.927, 377.56
341.293, 368.33
341.659, 400.63
342.025, 432.92
342.391, 446.76
342.756, 437.53
343.122, 432.92
343.488, 379.87
343.853, 382.17
344.219, 393.71
344.585, 402.93
344.95, 446.76
345.316, 377.56
345.681, 402.93
346.046, 375.25
346.412, 426
346.777, 333.74
347.142, 423.69
347.507, 319.9
347.873, 393.71
348.238, 428.31
348.603, 428.31
348.968, 419.08
349.333, 366.03
349.698, 407.55
350.063, 393.71
350.428, 435.23
350.793, 430.61
351.157, 393.71
351.522, 414.47
351.887, 384.48
352.252, 405.24
352.616, 315.28
352.981, 430.61
353.346, 396.01
353.71, 402.93
354.075, 363.72
354.439, 419.08
354.803, 389.09
355.168, 414.47
355.532, 398.32
355.896, 407.55
356.261, 389.09
356.625, 363.72
356.989, 400.63
357.353, 409.85
357.717, 396.01
358.081, 363.72
358.445, 435.23
358.809, 389.09
359.173, 375.25
359.537, 382.17
359.901, 347.58
360.265, 386.79
360.629, 455.99
360.992, 430.61
361.356, 412.16
361.72, 416.77
362.083, 382.17
362.447, 426
362.81, 416.77
363.174, 435.23
363.537, 432.92
363.901, 384.48
364.264, 354.49
364.627, 386.79
364.991, 340.66
365.354, 386.79
365.717, 324.51
366.08, 421.39
366.443, 423.69
366.806, 446.76
367.17, 474.44
367.533, 405.24
367.895, 481.36
368.258, 396.01
368.621, 412.16
368.984, 467.52
369.347, 451.37
369.71, 405.24
370.072, 372.95
370.435, 453.68
370.798, 366.03
371.16, 386.79
371.523, 382.17
371.885, 444.45
372.248, 396.01
372.61, 375.25
372.973, 469.82
373.335, 379.87
373.697, 419.08
374.06, 451.37
374.422, 366.03
374.784, 423.69
375.146, 483.66
375.508, 375.25
375.87, 460.6
376.232, 333.74
376.594, 432.92
376.956, 389.09
377.318, 356.8
377.68, 405.24
378.042, 391.4
378.404, 474.44
378.765, 442.15
379.127, 389.09
379.489, 423.69
379.85, 426
380.212, 458.29
380.573, 437.53
380.935, 400.63
381.296, 354.49
381.658, 345.27
382.019, 356.8
382.38, 416.77
382.742, 389.09
383.103, 398.32
383.464, 384.48
383.825, 393.71
384.186, 423.69
384.547, 423.69
384.909, 419.08
385.27, 379.87
385.63, 412.16
385.991, 405.24
386.352, 428.31
386.713, 495.2
387.074, 359.11
387.435, 407.55
387.795, 372.95
388.156, 379.87
388.517, 342.96
388.877, 442.15
389.238, 437.53
389.598, 384.48
389.959, 409.85
390.319, 423.69
390.679, 442.15
391.04, 389.09
391.4, 398.32
391.76, 426
392.121, 437.53
392.481, 414.47
392.841, 409.85
393.201, 419.08
393.561, 414.47
393.921, 416.77
394.281, 405.24
394.641, 356.8
395.001, 412.16
395.361, 368.33
395.72, 372.95
396.08, 391.4
396.44, 366.03
396.8, 389.09
397.159, 396.01
397.519, 361.41
397.878, 453.68
398.238, 462.9
398.597, 368.33
398.957, 368.33
399.316, 409.85
399.675, 363.72
400.035, 396.01
400.394, 437.53
400.753, 432.92
401.112, 449.07
401.472, 366.03
401.831, 377.56
402.19, 361.41
402.549, 377.56
402.908, 398.32
403.267, 412.16
403.625, 428.31
403.984, 363.72
404.343, 405.24
404.702, 488.28
405.061, 379.87
405.419, 342.96
405.778, 393.71
406.136, 345.27
406.495, 437.53
406.853, 400.63
407.212, 368.33
407.57, 315.28
407.929, 402.93
408.287, 430.61
408.645, 370.64
409.004, 414.47
409.362, 336.04
409.72, 393.71
410.078, 379.87
410.436, 349.88
410.794, 409.85
411.152, 342.96
411.51, 370.64
411.868, 442.15
412.226, 451.37
412.584, 342.96
412.942, 359.11
413.299, 363.72
413.657, 377.56
414.015, 331.43
414.372, 432.92
414.73, 391.4
415.088, 379.87
415.445, 359.11
415.803, 400.63
416.16, 451.37
416.517, 366.03
416.875, 349.88
417.232, 502.12
417.589, 352.19
417.946, 372.95
418.304, 426
418.661, 400.63
419.018, 430.61
419.375, 437.53
419.732, 333.74
420.089, 391.4
420.446, 402.93
420.803, 430.61
421.159, 407.55
421.516, 354.49
421.873, 375.25
422.23, 426
422.586, 370.64
422.943, 354.49
423.299, 412.16
423.656, 412.16
424.012, 419.08
424.369, 442.15
424.725, 379.87
425.082, 426
425.438, 342.96
425.794, 416.77
426.15, 451.37
426.507, 608.22
426.863, 806.59
427.219, 1604.67
427.575, 1881.46
427.931, 1341.72
428.287, 797.36
428.643, 564.4
428.999, 515.96
429.355, 474.44
429.711, 430.61
430.066, 449.07
430.422, 460.6
430.778, 502.12
431.133, 665.89
431.489, 1274.83
431.844, 2220.53
432.2, 2481.18
432.555, 1440.9
432.911, 635.9
433.266, 428.31
433.622, 439.84
433.977, 446.76
434.332, 437.53
434.687, 359.11
435.043, 421.39
435.398, 467.52
435.753, 578.23
436.108, 693.56
436.463, 742
436.818, 610.53
437.173, 716.63
437.528, 1034.94
437.882, 1041.86
438.237, 758.15
438.592, 483.66
438.947, 379.87
439.301, 437.53
439.656, 455.99
440.01, 492.89
440.365, 485.97
440.72, 506.73
441.074, 407.55
441.428, 416.77
441.783, 342.96
442.137, 485.97
442.491, 423.69
442.846, 465.21
443.2, 400.63
443.554, 405.24
443.908, 416.77
444.262, 354.49
444.616, 444.45
444.97, 647.43
445.324, 792.75
445.678, 871.17
446.032, 951.9
446.385, 1143.35
446.739, 981.89
447.093, 691.26
447.447, 449.07
447.8, 349.88
448.154, 437.53
448.507, 379.87
448.861, 386.79
449.214, 462.9
449.568, 492.89
449.921, 665.89
450.274, 880.4
450.628, 848.11
450.981, 511.34
451.334, 412.16
451.687, 340.66
452.041, 421.39
452.394, 409.85
452.747, 356.8
453.1, 389.09
453.453, 340.66
453.805, 421.39
454.158, 375.25
454.511, 338.35
454.864, 345.27
455.217, 377.56
455.569, 407.55
455.922, 370.64
456.275, 398.32
456.627, 347.58
456.98, 405.24
457.332, 414.47
457.684, 391.4
458.037, 377.56
458.389, 444.45
458.741, 386.79
459.094, 391.4
459.446, 393.71
459.798, 382.17
460.15, 428.31
460.502, 423.69
460.854, 398.32
461.206, 342.96
461.558, 439.84
461.91, 416.77
462.262, 377.56
462.614, 437.53
462.966, 396.01
463.317, 453.68
463.669, 414.47
464.021, 372.95
464.372, 407.55
464.724, 409.85
465.075, 409.85
465.427, 419.08
465.778, 375.25
466.13, 419.08
466.481, 407.55
466.832, 361.41
467.183, 361.41
467.535, 407.55
467.886, 421.39
468.237, 368.33
468.588, 423.69
468.939, 377.56
469.29, 349.88
469.641, 338.35
469.992, 354.49
470.343, 419.08
470.694, 354.49
471.044, 363.72
471.395, 352.19
471.746, 361.41
472.096, 375.25
472.447, 361.41
472.798, 412.16
473.148, 377.56
473.499, 354.49
473.849, 449.07
474.199, 423.69
474.55, 389.09
474.9, 368.33
475.25, 384.48
475.6, 462.9
475.951, 400.63
476.301, 391.4
476.651, 386.79
477.001, 449.07
477.351, 405.24
477.701, 379.87
478.051, 389.09
478.4, 372.95
478.75, 347.58
479.1, 405.24
479.45, 414.47
479.799, 400.63
480.149, 458.29
480.499, 407.55
480.848, 349.88
481.198, 451.37
481.547, 485.97
481.897, 421.39
482.246, 396.01
482.595, 368.33
482.945, 386.79
483.294, 356.8
483.643, 407.55
483.992, 382.17
484.341, 308.36
484.69, 382.17
485.039, 370.64
485.388, 400.63
485.737, 398.32
486.086, 370.64
486.435, 426
486.784, 400.63
487.132, 333.74
487.481, 363.72
487.83, 414.47
488.178, 363.72
488.527, 370.64
488.876, 469.82
489.224, 389.09
489.572, 414.47
489.921, 356.8
490.269, 442.15
490.618, 432.92
490.966, 349.88
491.314, 446.76
491.662, 324.51
492.01, 354.49
492.358, 442.15
492.706, 405.24
493.054, 384.48
493.402, 396.01
493.75, 310.67
494.098, 432.92
494.446, 349.88
494.794, 366.03
495.142, 405.24
495.489, 361.41
495.837, 396.01
496.184, 349.88
496.532, 449.07
496.88, 423.69
497.227, 409.85
497.574, 414.47
497.922, 419.08
498.269, 421.39
498.616, 396.01
498.964, 444.45
499.311, 382.17
499.658, 379.87
500.005, 416.77
500.352, 446.76
500.699, 428.31
501.046, 384.48
501.393, 359.11
501.74, 349.88
502.087, 421.39
502.434, 402.93
502.78, 366.03
503.127, 400.63
503.474, 396.01
503.82, 421.39
504.167, 416.77
504.513, 338.35
504.86, 389.09
505.206, 442.15
505.553, 398.32
505.899, 455.99
506.245, 366.03
506.592, 396.01
506.938, 308.36
507.284, 372.95
507.63, 402.93
507.976, 375.25
508.322, 377.56
508.668, 379.87
509.014, 352.19
509.36, 407.55
509.706, 412.16
510.052, 349.88
510.398, 359.11
510.743, 455.99
511.089, 432.92
511.435, 402.93
511.78, 432.92
512.126, 432.92
512.471, 352.19
512.817, 391.4
513.162, 407.55
513.508, 414.47
513.853, 414.47
514.198, 391.4
514.543, 356.8
514.889, 400.63
515.234, 432.92
515.579, 391.4
515.924, 361.41
516.269, 361.41
516.614, 398.32
516.959, 455.99
517.304, 370.64
517.648, 419.08
517.993, 419.08
518.338, 409.85
518.683, 347.58
519.027, 349.88
519.372, 342.96
519.716, 421.39
520.061, 416.77
520.405, 389.09
520.75, 419.08
521.094, 391.4
521.439, 472.13
521.783, 423.69
522.127, 497.5
522.471, 389.09
522.815, 407.55
523.159, 326.82
523.504, 423.69
523.848, 382.17
524.192, 442.15
524.535, 396.01
524.879, 366.03
525.223, 396.01
525.567, 384.48
525.911, 359.11
526.254, 363.72
526.598, 342.96
526.942, 432.92
527.285, 384.48
527.629, 345.27
527.972, 393.71
528.316, 409.85
528.659, 349.88
529.002, 375.25
529.346, 379.87
529.689, 324.51
530.032, 384.48
530.375, 345.27
530.718, 370.64
531.061, 437.53
531.404, 405.24
531.747, 462.9
532.09, 356.8
532.433, 372.95
532.776, 375.25
533.119, 423.69
533.461, 377.56
533.804, 407.55
534.147, 398.32
534.489, 375.25
534.832, 419.08
535.174, 349.88
535.517, 423.69
535.859, 419.08
536.202, 370.64
536.544, 439.84
536.886, 377.56
537.229, 483.66
537.571, 430.61
537.913, 396.01
538.255, 366.03
538.597, 446.76
538.939, 352.19
539.281, 356.8
539.623, 372.95
539.965, 444.45
540.307, 342.96
540.648, 303.75
540.99, 352.19
541.332, 370.64
541.674, 382.17
542.015, 322.2
542.357, 432.92
542.698, 419.08
543.04, 405.24
543.381, 402.93
543.722, 326.82
544.064, 368.33
544.405, 389.09
544.746, 312.98
545.087, 439.84
545.429, 329.12
545.77, 400.63
546.111, 437.53
546.452, 382.17
546.793, 338.35
547.134, 393.71
547.474, 375.25
547.815, 370.64
548.156, 361.41
548.497, 402.93
548.837, 421.39
549.178, 416.77
549.519, 419.08
549.859, 437.53
550.2, 476.74
550.54, 476.74
550.881, 497.5
551.221, 439.84
551.561, 393.71
551.901, 435.23
552.242, 481.36
552.582, 460.6
552.922, 407.55
553.262, 398.32
553.602, 400.63
553.942, 382.17
554.282, 409.85
554.622, 455.99
554.962, 372.95
555.302, 407.55
555.641, 675.11
555.981, 1205.63
556.321, 2870.99
556.66, 4794.69
557, 8021.62
557.339, 11638.36
557.679, 5740.4
558.018, 2292.04
558.358, 1237.92
558.697, 744.31
559.036, 485.97
559.376, 465.21
559.715, 426
560.054, 442.15
560.393, 421.39
560.732, 412.16
561.071, 333.74
561.41, 479.05
561.749, 451.37
562.088, 421.39
562.427, 393.71
562.766, 414.47
563.104, 423.69
563.443, 400.63
563.782, 421.39
564.12, 444.45
564.459, 419.08
564.797, 497.5
565.136, 675.11
565.474, 624.37
565.813, 479.05
566.151, 379.87
566.489, 419.08
566.827, 349.88
567.166, 426
567.504, 506.73
567.842, 455.99
568.18, 398.32
568.518, 382.17
568.856, 368.33
569.194, 359.11
569.531, 342.96
569.869, 405.24
570.207, 412.16
570.545, 396.01
570.882, 409.85
571.22, 451.37
571.558, 419.08
571.895, 402.93
572.233, 349.88
572.57, 449.07
572.907, 465.21
573.245, 412.16
573.582, 421.39
573.919, 437.53
574.257, 375.25
574.594, 430.61
574.931, 361.41
575.268, 342.96
575.605, 476.74
575.942, 315.28
576.279, 453.68
576.616, 400.63
576.952, 331.43
577.289, 375.25
577.626, 432.92
577.963, 437.53
578.299, 370.64
578.636, 386.79
578.972, 416.77
579.309, 372.95
579.645, 347.58
579.982, 437.53
580.318, 363.72
580.654, 442.15
580.991, 467.52
581.327, 430.61
581.663, 449.07
581.999, 347.58
582.335, 460.6
582.671, 573.62
583.007, 522.88
583.343, 485.97
583.679, 578.23
584.015, 465.21
584.351, 428.31
584.686, 407.55
585.022, 389.09
585.358, 389.09
585.693, 407.55
586.029, 578.23
586.364, 1069.54
586.7, 2960.95
587.035, 6937.52
587.371, 13119.2
587.706, 8420.66
588.041, 3625.25
588.376, 1858.4
588.712, 1028.02
589.047, 645.13
589.382, 449.07
589.717, 432.92
590.052, 416.77
590.387, 449.07
590.722, 359.11
591.057, 379.87
591.391, 372.95
591.726, 446.76
592.061, 398.32
592.395, 349.88
592.73, 359.11
593.065, 393.71
593.399, 379.87
593.734, 391.4
594.068, 382.17
594.402, 312.98
594.737, 366.03
595.071, 432.92
595.405, 366.03
595.739, 416.77
596.074, 437.53
596.408, 338.35
596.742, 382.17
597.076, 444.45
597.41, 391.4
597.744, 347.58
598.077, 393.71
598.411, 393.71
598.745, 419.08
599.079, 490.58
599.412, 513.65
599.746, 776.6
600.079, 638.21
600.413, 481.36
600.746, 428.31
601.08, 444.45
601.413, 566.7
601.747, 539.02
602.08, 520.57
602.413, 453.68
602.746, 396.01
603.079, 389.09
603.412, 426
603.746, 430.61
604.079, 469.82
604.411, 405.24
604.744, 400.63
605.077, 363.72
605.41, 453.68
605.743, 575.93
606.075, 640.51
606.408, 472.13
606.741, 402.93
607.073, 359.11
607.406, 412.16
607.738, 462.9
608.071, 414.47
608.403, 402.93
608.735, 497.5
609.068, 458.29
609.4, 312.98
609.732, 451.37
610.064, 361.41
610.396, 414.47
610.728, 366.03
611.06, 396.01
611.392, 372.95
611.724, 382.17
612.056, 391.4
612.388, 379.87
612.72, 409.85
613.051, 402.93
613.383, 402.93
613.714, 402.93
614.046, 391.4
614.378, 416.77
614.709, 379.87
615.04, 435.23
615.372, 366.03
615.703, 485.97
616.034, 400.63
616.366, 331.43
616.697, 423.69
617.028, 375.25
617.359, 398.32
617.69, 421.39
618.021, 423.69
618.352, 345.27
618.683, 379.87
619.014, 372.95
619.344, 342.96
619.675, 396.01
620.006, 384.48
620.336, 354.49
620.667, 398.32
620.998, 391.4
621.328, 363.72
621.659, 342.96
621.989, 398.32
622.319, 340.66
622.65, 389.09
622.98, 407.55
623.31, 423.69
623.64, 396.01
623.97, 414.47
624.3, 446.76
624.63, 437.53
624.96, 432.92
625.29, 396.01
625.62, 377.56
625.95, 407.55
626.28, 342.96
626.609, 331.43
626.939, 391.4
627.269, 345.27
627.598, 442.15
627.928, 363.72
628.257, 354.49
628.587, 366.03
628.916, 366.03
629.245, 396.01
629.575, 379.87
629.904, 384.48
630.233, 384.48
630.562, 421.39
630.891, 437.53
631.22, 354.49
631.549, 398.32
631.878, 389.09
632.207, 347.58
632.536, 352.19
632.865, 379.87
633.194, 382.17
633.522, 345.27
633.851, 393.71
634.18, 396.01
634.508, 414.47
634.837, 421.39
635.165, 384.48
635.494, 513.65
635.822, 396.01
636.15, 391.4
636.479, 370.64
636.807, 306.06
637.135, 402.93
637.463, 451.37
637.791, 416.77
638.119, 391.4
638.447, 382.17
638.775, 315.28
639.103, 423.69
639.431, 382.17
639.758, 393.71
640.086, 412.16
640.414, 382.17
640.741, 312.98
641.069, 398.32
641.397, 426
641.724, 426
642.052, 449.07
642.379, 645.13
642.706, 608.22
643.034, 497.5
643.361, 446.76
643.688, 361.41
644.015, 409.85
644.342, 465.21
644.669, 382.17
644.996, 402.93
645.323, 529.8
645.65, 647.43
645.977, 910.38
646.304, 758.15
646.63, 541.33
646.957, 462.9
647.284, 451.37
647.61, 375.25
647.937, 377.56
648.263, 379.87
648.59, 414.47
648.916, 391.4
649.243, 398.32
649.569, 419.08
649.895, 419.08
650.221, 405.24
650.548, 398.32
650.874, 400.63
651.2, 407.55
651.526, 375.25
651.852, 349.88
652.178, 419.08
652.504, 366.03
652.829, 368.33
653.155, 393.71
653.481, 405.24
653.806, 444.45
654.132, 342.96
654.458, 354.49
654.783, 329.12
655.109, 354.49
655.434, 372.95
655.759, 368.33
656.085, 379.87
656.41, 329.12
656.735, 361.41
657.06, 329.12
657.386, 345.27
657.711, 386.79
658.036, 449.07
658.361, 428.31
658.686, 407.55
659.01, 389.09
659.335, 451.37
659.66, 393.71
659.985, 375.25
660.309, 308.36
660.634, 396.01
660.959, 345.27
661.283, 379.87
661.608, 407.55
661.932, 361.41
662.256, 377.56
662.581, 384.48
662.905, 368.33
663.229, 414.47
663.553, 354.49
663.878, 400.63
664.202, 333.74
664.526, 363.72
664.85, 372.95
665.174, 338.35
665.498, 449.07
665.821, 529.8
666.145, 398.32
666.469, 389.09
666.793, 379.87
667.116, 324.51
667.44, 426
667.763, 359.11
668.087, 419.08
668.41, 405.24
668.734, 345.27
669.057, 414.47
669.38, 455.99
669.703, 472.13
670.027, 437.53
670.35, 421.39
670.673, 446.76
670.996, 416.77
671.319, 372.95
671.642, 421.39
671.965, 375.25
672.288, 389.09
672.61, 455.99
672.933, 301.44
673.256, 407.55
673.578, 389.09
673.901, 359.11
674.224, 421.39
674.546, 430.61
674.868, 345.27
675.191, 359.11
675.513, 382.17
675.836, 398.32
676.158, 352.19
676.48, 398.32
676.802, 386.79
677.124, 407.55
677.446, 354.49
677.768, 322.2
678.09, 349.88
678.412, 474.44
678.734, 372.95
679.056, 352.19
679.377, 386.79
679.699, 409.85
680.021, 338.35
680.342, 366.03
680.664, 322.2
680.985, 414.47
681.307, 379.87
681.628, 444.45
681.949, 481.36
682.271, 451.37
682.592, 446.76
682.913, 396.01
683.234, 428.31
683.555, 368.33
683.876, 382.17
684.197, 356.8
684.518, 331.43
684.839, 412.16
685.16, 400.63
685.481, 439.84
685.802, 407.55
686.122, 391.4
686.443, 435.23
686.763, 375.25
687.084, 435.23
687.405, 414.47
687.725, 444.45
688.045, 368.33
688.366, 407.55
688.686, 336.04
689.006, 372.95
689.326, 419.08
689.646, 405.24
689.967, 400.63
690.287, 453.68
690.607, 472.13
690.926, 592.07
691.246, 520.57
691.566, 467.52
691.886, 419.08
692.206, 400.63
692.525, 377.56
692.845, 389.09
693.165, 467.52
693.484, 361.41
693.804, 342.96
694.123, 414.47
694.442, 391.4
694.762, 389.09
695.081, 372.95
695.4, 382.17
695.719, 322.2
696.038, 324.51
696.357, 396.01
696.677, 352.19
696.995, 393.71
697.314, 331.43
697.633, 326.82
697.952, 322.2
698.271, 414.47
698.59, 379.87
698.908, 386.79
699.227, 393.71
699.545, 340.66
699.864, 349.88
700.182, 391.4
700.501, 354.49
700.819, 375.25
701.137, 414.47
701.456, 386.79
701.774, 402.93
702.092, 416.77
702.41, 310.67
702.728, 391.4
703.046, 359.11
703.364, 352.19
703.682, 345.27
704, 389.09
704.318, 375.25
704.635, 386.79
704.953, 414.47
705.271, 402.93
705.588, 414.47
705.906, 375.25
706.223, 423.69
706.541, 409.85
706.858, 393.71
707.176, 400.63
707.493, 379.87
707.81, 396.01
708.127, 407.55
708.444, 426
708.761, 366.03
709.078, 382.17
709.395, 340.66
709.712, 336.04
710.029, 409.85
710.346, 333.74
710.663, 366.03
710.98, 372.95
711.296, 379.87
711.613, 398.32
711.929, 345.27
712.246, 384.48
712.562, 366.03
712.879, 396.01
713.195, 349.88
713.512, 370.64
713.828, 402.93
714.144, 361.41
714.46, 359.11
714.776, 386.79
715.092, 451.37
715.408, 402.93
715.724, 414.47
716.04, 396.01
716.356, 317.59
716.672, 391.4
716.988, 384.48
717.303, 372.95
717.619, 409.85
717.935, 366.03
718.25, 356.8
718.566, 342.96
718.881, 402.93
719.196, 435.23
719.512, 389.09
719.827, 426
720.142, 442.15
720.457, 416.77
720.773, 377.56
721.088, 336.04
721.403, 345.27
721.718, 423.69
722.033, 419.08
722.348, 432.92
722.662, 495.2
722.977, 569.01
723.292, 529.8
723.607, 462.9
723.921, 442.15
724.236, 430.61
724.55, 366.03
724.865, 366.03
725.179, 382.17
725.493, 359.11
725.808, 393.71
726.122, 379.87
726.436, 356.8
726.75, 379.87
727.064, 372.95
727.379, 384.48
727.693, 400.63
728.006, 435.23
728.32, 396.01
728.634, 430.61
728.948, 559.78
729.262, 481.36
729.575, 534.41
729.889, 409.85
730.203, 426
730.516, 398.32
730.83, 396.01
731.143, 354.49
731.456, 352.19
731.77, 359.11
732.083, 326.82
732.396, 460.6
732.709, 402.93
733.023, 322.2
733.336, 432.92
733.649, 333.74
733.962, 423.69
734.275, 384.48
734.587, 405.24
734.9, 414.47
735.213, 396.01
735.526, 382.17
735.838, 389.09
736.151, 363.72
736.463, 386.79
736.776, 409.85
737.088, 375.25
737.401, 372.95
737.713, 416.77
738.025, 359.11
738.338, 338.35
738.65, 384.48
738.962, 366.03
739.274, 299.14
739.586, 340.66
739.898, 398.32
740.21, 421.39
740.522, 370.64
740.834, 366.03
741.145, 396.01
741.457, 382.17
741.769, 421.39
742.08, 396.01
742.392, 352.19
742.703, 308.36
743.015, 481.36
743.326, 490.58
743.638, 423.69
743.949, 372.95
744.26, 361.41
744.571, 377.56
744.882, 368.33
745.194, 400.63
745.505, 352.19
745.816, 396.01
746.127, 363.72
746.437, 386.79
746.748, 370.64
747.059, 428.31
747.37, 428.31
747.68, 407.55
747.991, 396.01
748.302, 423.69
748.612, 402.93
748.923, 476.74
749.233, 534.41
749.543, 566.7
749.854, 566.7
750.164, 541.33
750.474, 509.04
750.784, 423.69
751.094, 384.48
751.404, 366.03
751.714, 426
752.024, 432.92
752.334, 455.99
752.644, 393.71
752.954, 393.71
753.263, 326.82
753.573, 400.63
753.883, 430.61
754.192, 389.09
754.502, 393.71
754.811, 389.09
755.121, 407.55
755.43, 453.68
755.739, 451.37
756.049, 384.48
756.358, 428.31
756.667, 446.76
756.976, 442.15
757.285, 497.5
757.594, 555.17
757.903, 956.52
758.212, 2335.86
758.521, 4404.88
758.829, 10000.68
759.138, 22543.95
759.447, 25955.4
759.755, 24375.38
760.064, 23062.93
760.373, 37472.23
760.681, 51609.36
760.989, 46500.25
761.298, 32729.87
761.606, 19220.14
761.914, 9463.24
762.222, 4208.82
762.531, 1913.75
762.839, 1145.66
763.147, 801.97
763.455, 592.07
763.763, 543.64
764.071, 444.45
764.378, 479.05
764.686, 469.82
764.994, 428.31
765.301, 414.47
765.609, 396.01
765.917, 359.11
766.224, 423.69
766.532, 412.16
766.839, 437.53
767.146, 451.37
767.454, 442.15
767.761, 598.99
768.068, 1011.87
768.375, 1523.94
768.682, 3339.23
768.989, 6439.29
769.296, 7278.9
769.603, 8286.88
769.91, 10844.89
770.217, 9511.68
770.524, 7108.21
770.83, 4395.65
771.137, 2522.69
771.444, 1417.84
771.75, 811.2
772.057, 559.78
772.363, 522.88
772.67, 379.87
772.976, 430.61
773.282, 442.15
773.588, 462.9
773.895, 301.44
774.201, 414.47
774.507, 444.45
774.813, 506.73
775.119, 520.57
775.425, 633.59
775.731, 598.99
776.036, 437.53
776.342, 428.31
776.648, 435.23
776.953, 402.93
777.259, 368.33
777.565, 356.8
777.87, 407.55
778.175, 446.76
778.481, 342.96
778.786, 437.53
779.091, 338.35
779.397, 483.66
779.702, 366.03
780.007, 432.92
780.312, 412.16
780.617, 430.61
780.922, 402.93
781.227, 449.07
781.532, 405.24
781.836, 398.32
782.141, 361.41
782.446, 375.25
782.751, 402.93
783.055, 391.4
783.36, 419.08
783.664, 372.95
783.968, 472.13
784.273, 389.09
784.577, 481.36
784.881, 647.43
785.186, 1256.37
785.49, 2222.84
785.794, 4709.35
786.098, 6559.24
786.402, 5567.4
786.706, 4123.47
787.01, 2688.77
787.313, 1500.87
787.617, 1087.99
787.921, 670.5
788.225, 525.18
788.528, 435.23
788.832, 490.58
789.135, 432.92
789.439, 333.74
789.742, 432.92
790.045, 400.63
790.349, 400.63
790.652, 423.69
790.955, 396.01
791.258, 488.28
791.561, 596.69
791.864, 615.14
792.167, 603.61
792.47, 617.45
792.773, 502.12
793.076, 527.49
793.379, 647.43
793.681, 582.85
793.984, 566.7
794.287, 485.97
794.589, 520.57
794.892, 377.56
795.194, 372.95
795.496, 398.32
795.799, 402.93
796.101, 430.61
796.403, 437.53
796.705, 435.23
797.007, 396.01
797.309, 421.39
797.611, 389.09
797.913, 370.64
798.215, 414.47
798.517, 432.92
798.819, 453.68
799.121, 414.47
799.422, 363.72
799.724, 451.37
800.025, 409.85
800.327, 460.6
800.628, 377.56
800.93, 361.41
801.231, 469.82
801.532, 398.32
801.834, 317.59
802.135, 349.88
802.436, 423.69
802.737, 308.36
803.038, 377.56
803.339, 398.32
803.64, 442.15
803.941, 400.63
804.242, 356.8
804.542, 400.63
804.843, 405.24
805.144, 455.99
805.444, 522.88
805.745, 827.35
806.045, 1662.33
806.346, 3103.96
806.646, 4264.17
806.946, 3775.18
807.247, 2515.78
807.547, 1623.12
807.847, 1150.27
808.147, 861.95
808.447, 682.03
808.747, 569.01
809.047, 539.02
809.347, 707.4
809.647, 716.63
809.946, 898.85
810.246, 1782.28
810.546, 4153.46
810.845, 8858.91
811.145, 15280.48
811.444, 21130
811.744, 29159.26
812.043, 35580.83
812.343, 29791.27
812.642, 18341.33
812.941, 9839.22
813.24, 5574.32
813.539, 3189.3
813.838, 1978.34
814.137, 1387.85
814.436, 905.77
814.735, 778.91
815.034, 661.27
815.333, 513.65
815.632, 541.33
815.93, 469.82
816.229, 467.52
816.527, 412.16
816.826, 453.68
817.124, 444.45
817.423, 460.6
817.721, 467.52
818.019, 485.97
818.318, 589.77
818.616, 700.48
818.914, 1101.83
819.212, 2188.24
819.51, 4361.05
819.808, 6739.15
820.106, 7444.97
820.404, 5431.31
820.702, 3053.21
820.999, 1782.28
821.297, 1205.63
821.595, 797.36
821.892, 628.98
822.19, 594.38
822.487, 552.86
822.785, 467.52
823.082, 467.52
823.379, 465.21
823.677, 435.23
823.974, 405.24
824.271, 370.64
824.568, 407.55
824.865, 495.2
825.162, 469.82
825.459, 502.12
825.756, 539.02
826.053, 617.45
826.349, 873.48
826.646, 1590.83
826.943, 2663.4
827.239, 4107.33
827.536, 4801.61
827.832, 3908.96
828.129, 2594.2
828.425, 1879.15
828.721, 1627.74
829.018, 1726.92
829.314, 1892.99
829.61, 1895.3
829.906, 1920.67
830.202, 2197.46
830.498, 3274.65
830.794, 5138.37
831.09, 5883.41
831.386, 5036.88
831.681, 3279.26
831.977, 2121.35
832.273, 1286.36
832.568, 864.25
832.864, 732.78
833.159, 550.56
833.455, 543.64
833.75, 462.9
834.045, 485.97
834.341, 485.97
834.636, 366.03
834.931, 492.89
835.226, 465.21
835.521, 458.29
835.816, 370.64
836.111, 439.84
836.406, 449.07
836.701, 412.16
836.996, 370.64
837.29, 372.95
837.585, 361.41
837.88, 366.03
838.174, 398.32
838.469, 368.33
838.763, 398.32
839.057, 391.4
839.352, 398.32
839.646, 326.82
839.94, 386.79
840.234, 377.56
840.528, 412.16
840.822, 405.24
841.116, 398.32
841.41, 354.49
841.704, 400.63
841.998, 310.67
842.292, 368.33
842.586, 419.08
842.879, 356.8
843.173, 389.09
843.466, 324.51
843.76, 382.17
844.053, 398.32
844.347, 389.09
844.64, 414.47
844.933, 382.17
845.226, 296.83
845.52, 340.66
845.813, 400.63
846.106, 340.66
846.399, 379.87
846.692, 372.95
846.984, 317.59
847.277, 439.84
847.57, 308.36
847.863, 317.59
848.155, 453.68
848.448, 379.87
848.74, 416.77
849.033, 430.61
849.325, 402.93
849.618, 382.17
849.91, 469.82
850.202, 354.49
850.495, 412.16
850.787, 412.16
851.079, 342.96
851.371, 414.47
851.663, 338.35
851.955, 384.48
852.247, 384.48
852.538, 492.89
852.83, 455.99
853.122, 412.16
853.413, 444.45
853.705, 481.36
853.997, 467.52
854.288, 393.71
854.579, 306.06
854.871, 423.69
855.162, 377.56
855.453, 324.51
855.745, 352.19
856.036, 386.79
856.327, 414.47
856.618, 428.31
856.909, 317.59
857.2, 442.15
857.491, 414.47
857.781, 442.15
858.072, 421.39
858.363, 370.64
858.653, 340.66
858.944, 363.72
859.234, 299.14
859.525, 347.58
859.815, 368.33
860.106, 386.79
860.396, 366.03
860.686, 379.87
860.976, 366.03
861.267, 322.2
861.557, 377.56
861.847, 356.8
862.137, 317.59
862.426, 347.58
862.716, 363.72
863.006, 377.56
863.296, 398.32
863.585, 430.61
863.875, 426
864.165, 389.09
864.454, 349.88
864.744, 345.27
865.033, 310.67
865.322, 428.31
865.612, 359.11
865.901, 359.11
866.19, 398.32
866.479, 444.45
866.768, 393.71
867.057, 465.21
867.346, 396.01
867.635, 340.66
867.924, 400.63
868.213, 402.93
868.501, 407.55
868.79, 340.66
869.079, 345.27
869.367, 333.74
869.656, 370.64
869.944, 409.85
870.232, 354.49
870.521, 375.25
870.809, 405.24
871.097, 405.24
871.385, 426
871.673, 379.87
871.961, 352.19
872.249, 352.19
872.537, 352.19
